#Saved Data from the class odmr_logic on 01.08.2022 at 10h53m22s.
#
#Parameters:
#===========
#
#Microwave CW Power (dBm): -3.0000000000000000e+01
#Microwave Sweep Power (dBm): -1.0000000000000000e+01
#Run Time (s): 6.0000000000000000e+02
#Number of frequency sweeps (#): 96
#Start Frequencies (Hz): [2750000000.0]
#Stop Frequencies (Hz): [2990000000.0]
#Step sizes (Hz): [2000000.0]
#Clock Frequencies (Hz): 20
#Channel: 0: /Dev1/Ctr3
#
#Data:
#=====
#count data (counts/s)
8.959580e+06	8.972680e+06	8.984100e+06	8.964060e+06	8.975380e+06	8.968960e+06	8.979900e+06	8.985680e+06	8.974320e+06	8.975520e+06	8.971500e+06	8.965580e+06	8.980000e+06	8.958820e+06	8.982800e+06	8.971320e+06	8.979240e+06	8.959100e+06	8.985480e+06	8.978340e+06	8.981140e+06	8.974740e+06	8.977700e+06	8.976800e+06	8.974680e+06	8.975900e+06	8.969800e+06	8.960740e+06	8.967920e+06	8.962440e+06	8.975580e+06	8.978900e+06	8.964800e+06	8.954360e+06	8.967420e+06	8.966060e+06	8.986760e+06	8.962420e+06	8.978280e+06	8.968120e+06	8.985420e+06	8.979520e+06	8.981580e+06	8.956000e+06	8.980140e+06	8.986300e+06	8.973320e+06	8.967660e+06	8.963500e+06	8.972680e+06	8.982660e+06	8.962340e+06	8.955240e+06	8.963600e+06	8.958300e+06	8.953160e+06	8.883320e+06	8.856540e+06	8.838600e+06	8.869420e+06	8.867080e+06	8.863280e+06	8.843240e+06	8.875700e+06	8.888040e+06	8.934140e+06	8.977060e+06	8.974960e+06	8.966680e+06	8.988680e+06	8.973000e+06	8.967320e+06	8.977260e+06	8.964560e+06	8.985200e+06	8.976900e+06	8.970500e+06	8.969620e+06	8.970840e+06	8.984640e+06	8.972300e+06	8.969580e+06	8.975300e+06	8.975680e+06	8.973320e+06	8.979220e+06	8.983340e+06	8.968580e+06	8.969960e+06	8.979020e+06	8.963440e+06	8.986460e+06	8.968500e+06	8.982220e+06	8.972260e+06	8.959120e+06	8.966460e+06	8.985180e+06	8.968980e+06	8.977520e+06	8.988560e+06	8.967860e+06	8.981620e+06	8.980440e+06	8.983720e+06	8.977520e+06	8.974180e+06	8.976460e+06	8.988380e+06	8.969760e+06	8.971480e+06	8.963780e+06	8.982040e+06	8.984040e+06	8.975620e+06	8.980000e+06	8.982300e+06	8.968900e+06	8.971500e+06	8.971720e+06	8.987140e+06
8.976420e+06	8.966840e+06	8.989280e+06	8.972060e+06	8.974780e+06	8.965600e+06	8.965720e+06	8.971740e+06	8.971000e+06	8.978660e+06	8.980240e+06	8.977640e+06	8.965760e+06	8.992420e+06	8.969840e+06	8.968580e+06	8.975120e+06	8.999340e+06	8.983780e+06	8.989460e+06	8.993880e+06	8.987340e+06	8.981120e+06	8.973580e+06	8.981380e+06	8.985980e+06	8.981600e+06	8.962740e+06	8.984880e+06	8.989920e+06	8.996420e+06	8.977020e+06	8.987300e+06	8.977940e+06	8.957840e+06	8.989640e+06	8.972700e+06	8.988340e+06	8.979580e+06	8.974540e+06	8.987040e+06	8.969780e+06	8.985600e+06	8.988980e+06	8.985520e+06	8.973860e+06	8.976520e+06	8.978760e+06	8.981280e+06	8.979340e+06	8.987040e+06	8.971480e+06	8.971840e+06	8.970580e+06	8.969320e+06	8.959860e+06	8.890840e+06	8.860760e+06	8.851380e+06	8.868200e+06	8.869740e+06	8.862060e+06	8.839860e+06	8.864700e+06	8.902980e+06	8.929180e+06	8.955560e+06	8.973580e+06	8.985440e+06	8.963560e+06	8.983080e+06	8.968960e+06	8.972940e+06	8.972400e+06	8.977740e+06	8.966180e+06	8.978120e+06	8.975600e+06	8.978780e+06	8.977200e+06	8.982620e+06	8.966180e+06	8.975700e+06	8.959460e+06	8.972840e+06	8.966520e+06	8.973540e+06	8.982400e+06	8.969440e+06	8.964620e+06	8.971120e+06	8.976900e+06	8.968820e+06	8.963240e+06	8.974220e+06	8.973160e+06	8.970980e+06	8.973740e+06	8.964320e+06	8.976880e+06	8.975820e+06	8.952680e+06	8.981840e+06	8.967500e+06	8.970860e+06	8.975520e+06	8.971140e+06	8.992780e+06	8.969180e+06	8.974040e+06	8.973940e+06	8.977180e+06	8.969480e+06	8.978740e+06	8.964920e+06	8.982120e+06	8.974960e+06	8.973960e+06	8.968360e+06	8.995080e+06	8.979560e+06
8.992320e+06	9.014400e+06	8.973220e+06	8.987740e+06	8.983100e+06	8.976080e+06	8.974640e+06	8.965660e+06	8.984800e+06	8.977760e+06	8.977560e+06	8.982800e+06	9.006800e+06	8.983740e+06	9.001220e+06	8.994600e+06	8.981520e+06	8.980600e+06	8.976740e+06	8.984020e+06	8.991520e+06	8.994200e+06	8.988520e+06	8.981220e+06	8.975120e+06	8.968940e+06	8.972200e+06	8.977640e+06	8.971560e+06	8.983000e+06	8.992500e+06	8.992040e+06	8.979280e+06	8.979620e+06	8.976180e+06	8.974640e+06	8.981460e+06	8.974460e+06	8.975620e+06	8.974780e+06	8.996240e+06	8.983780e+06	8.984200e+06	8.988940e+06	8.970740e+06	8.998120e+06	8.990080e+06	8.982120e+06	8.960340e+06	8.976360e+06	8.969320e+06	8.965880e+06	8.966700e+06	8.967680e+06	8.946280e+06	8.924200e+06	8.873600e+06	8.861920e+06	8.849240e+06	8.866120e+06	8.862080e+06	8.856500e+06	8.838880e+06	8.866420e+06	8.898540e+06	8.938400e+06	8.949760e+06	8.982640e+06	8.975660e+06	8.982480e+06	8.972600e+06	8.978020e+06	8.974260e+06	8.969040e+06	8.969840e+06	8.979140e+06	8.986720e+06	8.975600e+06	8.974440e+06	8.972900e+06	8.977740e+06	8.970080e+06	8.986600e+06	8.984640e+06	8.983920e+06	8.970380e+06	8.977960e+06	8.987580e+06	8.984220e+06	8.988840e+06	8.977160e+06	8.981720e+06	8.959540e+06	8.973140e+06	8.969420e+06	8.987060e+06	8.977900e+06	8.959400e+06	8.966020e+06	8.978660e+06	8.971720e+06	8.970280e+06	8.977220e+06	8.983120e+06	8.986520e+06	8.981380e+06	8.984600e+06	8.964580e+06	8.987200e+06	8.976940e+06	8.983600e+06	8.986840e+06	8.980380e+06	8.966920e+06	8.969380e+06	8.981920e+06	8.984100e+06	8.993900e+06	8.988040e+06	8.991600e+06	8.992060e+06
8.975680e+06	8.971760e+06	8.976880e+06	8.970560e+06	8.969220e+06	8.989180e+06	8.973360e+06	8.975560e+06	8.985160e+06	8.985020e+06	8.970160e+06	8.996680e+06	8.992500e+06	8.967480e+06	8.983600e+06	8.969180e+06	8.970540e+06	8.980640e+06	8.996980e+06	8.971580e+06	8.977280e+06	8.988100e+06	8.988620e+06	8.952460e+06	8.980540e+06	8.991300e+06	8.980260e+06	8.953220e+06	8.982760e+06	8.962360e+06	8.977160e+06	8.980260e+06	8.978800e+06	8.975220e+06	8.968960e+06	8.973660e+06	8.974400e+06	8.995280e+06	8.988460e+06	8.973160e+06	8.979040e+06	8.977800e+06	8.992600e+06	8.962600e+06	8.993200e+06	8.977660e+06	8.972880e+06	8.989600e+06	8.986680e+06	8.979940e+06	8.975360e+06	8.991920e+06	8.974620e+06	8.957480e+06	8.961800e+06	8.956120e+06	8.883200e+06	8.852440e+06	8.868240e+06	8.888640e+06	8.894540e+06	8.875840e+06	8.865880e+06	8.885400e+06	8.904920e+06	8.941060e+06	8.958380e+06	8.974600e+06	8.968480e+06	8.978420e+06	8.976820e+06	8.996340e+06	8.979720e+06	8.983860e+06	8.979760e+06	8.998440e+06	8.987880e+06	8.968880e+06	8.979100e+06	8.982840e+06	8.984900e+06	8.985560e+06	8.985340e+06	8.987000e+06	8.988220e+06	8.972200e+06	8.975980e+06	8.988900e+06	8.986180e+06	8.982780e+06	8.981040e+06	8.985200e+06	8.980780e+06	8.980160e+06	8.985220e+06	8.979700e+06	8.994800e+06	8.991040e+06	8.976020e+06	8.984400e+06	8.995100e+06	8.979020e+06	8.976680e+06	8.992240e+06	8.988380e+06	8.979180e+06	8.970700e+06	8.982440e+06	8.963500e+06	8.989760e+06	9.001620e+06	8.983820e+06	8.977580e+06	8.985760e+06	8.975420e+06	8.975440e+06	8.971500e+06	8.992240e+06	8.967140e+06	8.999180e+06	8.994700e+06
8.976800e+06	8.990360e+06	8.988620e+06	8.987880e+06	8.983000e+06	8.983580e+06	8.977600e+06	8.990800e+06	8.993400e+06	8.987940e+06	8.971940e+06	8.979120e+06	8.987040e+06	8.982040e+06	8.976280e+06	8.993280e+06	8.987880e+06	8.981080e+06	8.977800e+06	8.967580e+06	8.986880e+06	8.993400e+06	8.978960e+06	8.983100e+06	8.977300e+06	8.992400e+06	8.969520e+06	8.993240e+06	8.989180e+06	8.981240e+06	8.981440e+06	8.984400e+06	8.979920e+06	8.972600e+06	8.971100e+06	8.983260e+06	8.976200e+06	8.995380e+06	8.993820e+06	8.984440e+06	8.984020e+06	8.996220e+06	8.980460e+06	8.965240e+06	8.995700e+06	8.975700e+06	8.988840e+06	8.987020e+06	8.999900e+06	8.990460e+06	8.984220e+06	8.990440e+06	8.983320e+06	8.974360e+06	8.965800e+06	8.938980e+06	8.873540e+06	8.867560e+06	8.853320e+06	8.863280e+06	8.873100e+06	8.857560e+06	8.840480e+06	8.868420e+06	8.883840e+06	8.935640e+06	8.967140e+06	8.959140e+06	8.961460e+06	8.981840e+06	8.980280e+06	8.985240e+06	8.990460e+06	8.977300e+06	8.961160e+06	8.974800e+06	8.973120e+06	8.977220e+06	8.977560e+06	8.986080e+06	8.976020e+06	8.969480e+06	8.975420e+06	8.967500e+06	8.982160e+06	8.959540e+06	8.977280e+06	8.991760e+06	8.978200e+06	8.974260e+06	8.966060e+06	8.971000e+06	8.973940e+06	8.980560e+06	8.980300e+06	8.977080e+06	8.990720e+06	8.986540e+06	8.972740e+06	8.984160e+06	8.982780e+06	8.982500e+06	8.988840e+06	8.965380e+06	8.980360e+06	8.977520e+06	8.994780e+06	8.974120e+06	8.970180e+06	8.970200e+06	8.971380e+06	8.987460e+06	8.987100e+06	8.978200e+06	8.995800e+06	8.987740e+06	8.975380e+06	8.972700e+06	8.991100e+06	8.961600e+06	8.984800e+06
8.975740e+06	8.977360e+06	8.977860e+06	8.970860e+06	8.964660e+06	8.966680e+06	8.981180e+06	8.982580e+06	8.965140e+06	8.978920e+06	8.970120e+06	8.968500e+06	8.981300e+06	8.988000e+06	8.984640e+06	8.976080e+06	8.980260e+06	8.971740e+06	8.986820e+06	8.984540e+06	8.974620e+06	8.985520e+06	8.985160e+06	8.977560e+06	8.973320e+06	8.974180e+06	8.975080e+06	8.996480e+06	8.971440e+06	8.977520e+06	8.975520e+06	8.976840e+06	8.965840e+06	8.976180e+06	8.977080e+06	8.993760e+06	8.991100e+06	8.976280e+06	8.978400e+06	8.983240e+06	8.971400e+06	8.974660e+06	8.973580e+06	8.977060e+06	8.984420e+06	8.980800e+06	8.977100e+06	8.966700e+06	8.984400e+06	8.955700e+06	8.974420e+06	8.975240e+06	8.963720e+06	8.964380e+06	8.951720e+06	8.932880e+06	8.876280e+06	8.849460e+06	8.845680e+06	8.883260e+06	8.883140e+06	8.861560e+06	8.846160e+06	8.877520e+06	8.901160e+06	8.953640e+06	8.954420e+06	8.965640e+06	8.952180e+06	8.984680e+06	8.980500e+06	8.978480e+06	8.960560e+06	8.997280e+06	8.997960e+06	8.983340e+06	8.984980e+06	8.976880e+06	8.981640e+06	9.000300e+06	8.992720e+06	8.990480e+06	8.971160e+06	8.994340e+06	8.994140e+06	8.992520e+06	8.977820e+06	8.994640e+06	8.990900e+06	8.983080e+06	8.982020e+06	8.982100e+06	8.984180e+06	8.974860e+06	8.982480e+06	8.998200e+06	8.995260e+06	8.982960e+06	8.985080e+06	8.975000e+06	8.993820e+06	8.974080e+06	8.988900e+06	8.974580e+06	8.989420e+06	8.993040e+06	8.984660e+06	8.972100e+06	8.968560e+06	8.982060e+06	8.994580e+06	8.974380e+06	8.978340e+06	8.988560e+06	8.978320e+06	8.975400e+06	8.978260e+06	8.983140e+06	8.982860e+06	8.989800e+06	8.981540e+06
8.962260e+06	8.963620e+06	8.972360e+06	8.966780e+06	8.976320e+06	8.967280e+06	8.973300e+06	8.978240e+06	8.972740e+06	8.969700e+06	8.983080e+06	8.966380e+06	8.975980e+06	8.990800e+06	8.987080e+06	8.983820e+06	8.981380e+06	8.983340e+06	8.981460e+06	8.972280e+06	8.963020e+06	8.955040e+06	8.978840e+06	8.977780e+06	8.974640e+06	8.967040e+06	8.968280e+06	8.980520e+06	8.978140e+06	8.974920e+06	8.968900e+06	8.971680e+06	8.984820e+06	8.960420e+06	8.982120e+06	8.966080e+06	8.964760e+06	8.985040e+06	8.985460e+06	8.995460e+06	8.967600e+06	8.985520e+06	8.977820e+06	8.999600e+06	8.979920e+06	8.974820e+06	8.981540e+06	8.974260e+06	8.971120e+06	8.966560e+06	8.970240e+06	8.980580e+06	8.973960e+06	8.981280e+06	8.954340e+06	8.939740e+06	8.880700e+06	8.869500e+06	8.865240e+06	8.880300e+06	8.889740e+06	8.859040e+06	8.858840e+06	8.889460e+06	8.905860e+06	8.945200e+06	8.974700e+06	8.960800e+06	8.965860e+06	8.969420e+06	8.979720e+06	8.973680e+06	8.988200e+06	8.968180e+06	8.968860e+06	8.990680e+06	8.984000e+06	8.987100e+06	8.987720e+06	8.991860e+06	8.977560e+06	8.992340e+06	8.974280e+06	8.973240e+06	8.986820e+06	8.976400e+06	8.972440e+06	8.999820e+06	8.983340e+06	8.975000e+06	8.968760e+06	8.985680e+06	8.970840e+06	8.968680e+06	8.973920e+06	8.979780e+06	8.984340e+06	8.990200e+06	8.989460e+06	8.991220e+06	8.964560e+06	8.982300e+06	8.975200e+06	8.970560e+06	8.974860e+06	8.972260e+06	9.000740e+06	8.995960e+06	8.982740e+06	8.979100e+06	8.968620e+06	8.980780e+06	8.989100e+06	8.974060e+06	8.974420e+06	8.978240e+06	8.977500e+06	8.987800e+06	8.984860e+06	8.976120e+06	9.002580e+06
8.978600e+06	8.979840e+06	8.990680e+06	8.990080e+06	8.974360e+06	8.988380e+06	9.000540e+06	8.984300e+06	8.988280e+06	8.975300e+06	8.994380e+06	8.986420e+06	8.991560e+06	8.992660e+06	8.999040e+06	8.985540e+06	8.984820e+06	8.985700e+06	8.977840e+06	8.988940e+06	8.961660e+06	8.993060e+06	8.988020e+06	8.983320e+06	8.992820e+06	8.973660e+06	8.979120e+06	8.981600e+06	8.980580e+06	8.961620e+06	8.973140e+06	8.989160e+06	8.977820e+06	8.987220e+06	8.969360e+06	8.985480e+06	8.980940e+06	8.979680e+06	8.973200e+06	8.989460e+06	8.974480e+06	8.979640e+06	8.963320e+06	8.979120e+06	8.974320e+06	8.976320e+06	8.985700e+06	8.975300e+06	8.979300e+06	8.966920e+06	8.975500e+06	8.956160e+06	8.974860e+06	8.960100e+06	8.947060e+06	8.954680e+06	8.861880e+06	8.861100e+06	8.856740e+06	8.857580e+06	8.892860e+06	8.863780e+06	8.843860e+06	8.879340e+06	8.896560e+06	8.935640e+06	8.977140e+06	8.975380e+06	8.970380e+06	8.968260e+06	8.980980e+06	8.976300e+06	8.978180e+06	8.969480e+06	8.980660e+06	8.987980e+06	8.984540e+06	8.976820e+06	8.977460e+06	8.973240e+06	8.986220e+06	8.982480e+06	8.960760e+06	8.970300e+06	8.994400e+06	8.979960e+06	8.983120e+06	8.981800e+06	8.989060e+06	8.974080e+06	8.969880e+06	8.966520e+06	8.980720e+06	8.985640e+06	8.988720e+06	8.965420e+06	8.967020e+06	8.971960e+06	8.956340e+06	8.987640e+06	8.975720e+06	8.986780e+06	8.968120e+06	8.962680e+06	8.992400e+06	8.972320e+06	8.981040e+06	8.977100e+06	8.979720e+06	8.979600e+06	8.972400e+06	8.970300e+06	8.986200e+06	8.958580e+06	8.970660e+06	8.975980e+06	8.986980e+06	8.969400e+06	8.982220e+06	8.984960e+06	8.970960e+06
8.978860e+06	8.990260e+06	8.978640e+06	8.984700e+06	8.969420e+06	8.983580e+06	9.000840e+06	8.972180e+06	8.987840e+06	8.974060e+06	8.971540e+06	8.969160e+06	8.986440e+06	8.980360e+06	8.981380e+06	8.985500e+06	8.970920e+06	8.975520e+06	8.992180e+06	8.987640e+06	8.989360e+06	8.979980e+06	8.979180e+06	8.995980e+06	8.980380e+06	8.989500e+06	8.989280e+06	8.997400e+06	8.967940e+06	8.983160e+06	8.968220e+06	8.985000e+06	8.981360e+06	8.994680e+06	8.995400e+06	8.987780e+06	8.982640e+06	8.982680e+06	9.001400e+06	8.991320e+06	8.988940e+06	8.984220e+06	8.989700e+06	8.986400e+06	8.982960e+06	8.985580e+06	8.978520e+06	8.990220e+06	8.979100e+06	8.999500e+06	8.983160e+06	8.977880e+06	9.003500e+06	8.975360e+06	8.967260e+06	8.952740e+06	8.885080e+06	8.888280e+06	8.849180e+06	8.889800e+06	8.895040e+06	8.887360e+06	8.857600e+06	8.877840e+06	8.917620e+06	8.940480e+06	8.978900e+06	8.981300e+06	8.969940e+06	8.987840e+06	8.984060e+06	8.988120e+06	9.002060e+06	8.975960e+06	8.992600e+06	8.989740e+06	8.979120e+06	8.984700e+06	8.982620e+06	8.993500e+06	8.999800e+06	8.988740e+06	8.999720e+06	8.985560e+06	8.989400e+06	8.981680e+06	8.982980e+06	8.969400e+06	8.985720e+06	8.976280e+06	8.995920e+06	8.985280e+06	8.973460e+06	8.989660e+06	8.979800e+06	8.980640e+06	8.975500e+06	8.983220e+06	8.976400e+06	8.974160e+06	8.991000e+06	8.988420e+06	8.988540e+06	8.986780e+06	8.980680e+06	8.987640e+06	8.993940e+06	8.980920e+06	8.989580e+06	8.991840e+06	8.991520e+06	8.976360e+06	8.979160e+06	8.977020e+06	8.977200e+06	8.987940e+06	9.007840e+06	9.002800e+06	8.987360e+06	8.987800e+06	8.990980e+06
8.989160e+06	8.986980e+06	8.987880e+06	8.982860e+06	8.978540e+06	8.986060e+06	8.979080e+06	8.976840e+06	8.977400e+06	8.992880e+06	8.985680e+06	8.988880e+06	8.981900e+06	8.989820e+06	8.981720e+06	8.984200e+06	8.987000e+06	8.980180e+06	8.971240e+06	8.953040e+06	8.973120e+06	8.986180e+06	8.981840e+06	8.976640e+06	8.985680e+06	8.973400e+06	8.988220e+06	8.982660e+06	8.985840e+06	8.982340e+06	8.991980e+06	8.981440e+06	8.984040e+06	8.981720e+06	8.965960e+06	8.972580e+06	8.979560e+06	8.995760e+06	8.982400e+06	8.970480e+06	8.989800e+06	8.980940e+06	8.988320e+06	8.976740e+06	8.992460e+06	8.978800e+06	8.985460e+06	8.984680e+06	8.989880e+06	8.983400e+06	9.005980e+06	8.977020e+06	8.989900e+06	8.981480e+06	8.962040e+06	8.941380e+06	8.890520e+06	8.885540e+06	8.859020e+06	8.881460e+06	8.911600e+06	8.894100e+06	8.854020e+06	8.888260e+06	8.894900e+06	8.946080e+06	8.954580e+06	8.979820e+06	8.987080e+06	8.989500e+06	8.987220e+06	8.987260e+06	8.984220e+06	9.001220e+06	8.997840e+06	8.993500e+06	8.990160e+06	8.985840e+06	8.990380e+06	8.975700e+06	8.980540e+06	8.981580e+06	8.980440e+06	8.985760e+06	8.988120e+06	8.992160e+06	8.978880e+06	8.976780e+06	8.968500e+06	8.981120e+06	8.981320e+06	8.983120e+06	8.982440e+06	8.992480e+06	8.988760e+06	8.992200e+06	8.994240e+06	8.978060e+06	8.981120e+06	8.975700e+06	8.987100e+06	8.984080e+06	8.985560e+06	8.989260e+06	8.991100e+06	8.980400e+06	8.991420e+06	8.994560e+06	8.993160e+06	9.000860e+06	8.983400e+06	8.997320e+06	8.979980e+06	8.981400e+06	8.983560e+06	8.984800e+06	8.968940e+06	8.977980e+06	8.990340e+06	9.003120e+06	8.971160e+06
8.979940e+06	8.974860e+06	8.978160e+06	8.977040e+06	8.978300e+06	8.980460e+06	8.982120e+06	8.985980e+06	8.979760e+06	8.979880e+06	8.989620e+06	8.985200e+06	8.985060e+06	8.961040e+06	8.978120e+06	8.977820e+06	8.982580e+06	8.980000e+06	8.975540e+06	8.977980e+06	8.967160e+06	8.984660e+06	9.003940e+06	8.981240e+06	8.969940e+06	8.967580e+06	8.975140e+06	8.989660e+06	8.972720e+06	8.981680e+06	8.980340e+06	8.978300e+06	9.006680e+06	8.958200e+06	8.969040e+06	8.966020e+06	8.971340e+06	8.978200e+06	8.987620e+06	8.982240e+06	8.969040e+06	8.972780e+06	8.963420e+06	8.980360e+06	8.977800e+06	8.982440e+06	8.962700e+06	8.970780e+06	8.974220e+06	8.977140e+06	8.980700e+06	8.970020e+06	8.980140e+06	8.968800e+06	8.956980e+06	8.935940e+06	8.880060e+06	8.858780e+06	8.870760e+06	8.866260e+06	8.871780e+06	8.851160e+06	8.841460e+06	8.879980e+06	8.885960e+06	8.940280e+06	8.962460e+06	8.964140e+06	8.974040e+06	8.980180e+06	8.982360e+06	8.983800e+06	8.978680e+06	8.977080e+06	8.965700e+06	8.993120e+06	8.988840e+06	8.980300e+06	8.974440e+06	8.977040e+06	8.976100e+06	8.974780e+06	8.983480e+06	8.985100e+06	8.980780e+06	8.965740e+06	8.971300e+06	8.973860e+06	8.978400e+06	8.977220e+06	8.957880e+06	8.978420e+06	8.979300e+06	8.979660e+06	8.971420e+06	8.969240e+06	8.970440e+06	8.965680e+06	8.975520e+06	8.965260e+06	8.969120e+06	8.978060e+06	8.970180e+06	8.967740e+06	8.967040e+06	8.978720e+06	8.985060e+06	8.969340e+06	8.967900e+06	8.988020e+06	8.983200e+06	8.987120e+06	8.972120e+06	8.991660e+06	8.978820e+06	8.982400e+06	8.978860e+06	8.967500e+06	8.980120e+06	8.976840e+06	8.980900e+06
8.997260e+06	8.991020e+06	8.975060e+06	8.968620e+06	8.961200e+06	8.990180e+06	8.982900e+06	8.981120e+06	8.987600e+06	8.979800e+06	8.970840e+06	8.973160e+06	8.970960e+06	8.977140e+06	8.977260e+06	8.980600e+06	8.973100e+06	8.969680e+06	8.979400e+06	8.961580e+06	8.979140e+06	8.966100e+06	8.985020e+06	8.973460e+06	8.980900e+06	8.967400e+06	8.962080e+06	8.971320e+06	8.983340e+06	8.973880e+06	8.981120e+06	8.973680e+06	8.965640e+06	8.986460e+06	8.972440e+06	8.981780e+06	8.975360e+06	8.971940e+06	8.976300e+06	8.981440e+06	8.989680e+06	8.977740e+06	8.965180e+06	8.979860e+06	8.965740e+06	8.977440e+06	8.971280e+06	8.970880e+06	8.972760e+06	8.970540e+06	8.968220e+06	8.977360e+06	8.974340e+06	8.961060e+06	8.968860e+06	8.935500e+06	8.889680e+06	8.864120e+06	8.839020e+06	8.869380e+06	8.859140e+06	8.860940e+06	8.848820e+06	8.878800e+06	8.887280e+06	8.927900e+06	8.947940e+06	8.956680e+06	8.974400e+06	8.982020e+06	8.965060e+06	8.966980e+06	8.994900e+06	8.986440e+06	8.974320e+06	9.000420e+06	8.976300e+06	8.978560e+06	8.989500e+06	8.973880e+06	8.979540e+06	8.974780e+06	8.981260e+06	8.967800e+06	8.975440e+06	8.975380e+06	8.972740e+06	8.979080e+06	8.983900e+06	8.973980e+06	8.967720e+06	8.987340e+06	8.966260e+06	8.973540e+06	8.980260e+06	8.965740e+06	8.963860e+06	8.970620e+06	8.975660e+06	8.969160e+06	8.971980e+06	8.978120e+06	8.976720e+06	8.963520e+06	8.968600e+06	8.969680e+06	8.973400e+06	8.981440e+06	8.974960e+06	8.983980e+06	8.974340e+06	8.985880e+06	8.984220e+06	8.977220e+06	8.996600e+06	8.977100e+06	8.979920e+06	8.969700e+06	8.964060e+06	8.981180e+06	8.974320e+06
8.972040e+06	8.966720e+06	8.971640e+06	8.973480e+06	8.970060e+06	8.991440e+06	8.983720e+06	8.980440e+06	8.972160e+06	8.986840e+06	8.983520e+06	8.976840e+06	8.982280e+06	8.969380e+06	8.976440e+06	8.976120e+06	8.975460e+06	8.969660e+06	8.978080e+06	8.977380e+06	8.976420e+06	8.969060e+06	8.965420e+06	8.980360e+06	8.971320e+06	8.973420e+06	8.978440e+06	8.960500e+06	8.964780e+06	8.958820e+06	8.969460e+06	8.984900e+06	8.963760e+06	8.989580e+06	8.955760e+06	8.977940e+06	8.978060e+06	8.965680e+06	8.972900e+06	8.972740e+06	8.966220e+06	8.968920e+06	8.981940e+06	8.984880e+06	8.963100e+06	8.971860e+06	8.978860e+06	8.965060e+06	8.970640e+06	8.966660e+06	8.968260e+06	8.981100e+06	8.969160e+06	8.962820e+06	8.961300e+06	8.933900e+06	8.880080e+06	8.861940e+06	8.842580e+06	8.869200e+06	8.877460e+06	8.848820e+06	8.854060e+06	8.865840e+06	8.888240e+06	8.940560e+06	8.962840e+06	8.952700e+06	8.951760e+06	8.979820e+06	8.995360e+06	8.968100e+06	8.981260e+06	8.986160e+06	8.991140e+06	8.975620e+06	8.974180e+06	8.967060e+06	8.972780e+06	8.977220e+06	8.961500e+06	8.964120e+06	8.984740e+06	8.970340e+06	8.971700e+06	8.966300e+06	8.972960e+06	8.967920e+06	8.980260e+06	8.981800e+06	8.967300e+06	8.975240e+06	8.966840e+06	8.968100e+06	8.961980e+06	8.962260e+06	8.980280e+06	8.974080e+06	8.974080e+06	8.968900e+06	8.978540e+06	8.983480e+06	8.977080e+06	8.962560e+06	8.979400e+06	8.981760e+06	8.978700e+06	8.968740e+06	8.985280e+06	8.987200e+06	8.989360e+06	8.966040e+06	8.990720e+06	8.984840e+06	8.981820e+06	8.987180e+06	8.961380e+06	8.974840e+06	8.977000e+06	8.971640e+06	8.984820e+06
8.990840e+06	8.971540e+06	8.981880e+06	8.967820e+06	8.979500e+06	8.992980e+06	8.985900e+06	8.980160e+06	8.969180e+06	8.984420e+06	8.989020e+06	8.981360e+06	8.994880e+06	8.998360e+06	8.970560e+06	8.974820e+06	8.978280e+06	8.991700e+06	8.986620e+06	8.974200e+06	8.986840e+06	8.972060e+06	8.984280e+06	8.970440e+06	8.982520e+06	8.982660e+06	8.970340e+06	8.953940e+06	8.981580e+06	8.965880e+06	8.965580e+06	8.976900e+06	8.978940e+06	8.981120e+06	8.983600e+06	8.973580e+06	8.981560e+06	8.977440e+06	8.970960e+06	8.970060e+06	8.988360e+06	8.972760e+06	8.972640e+06	8.995520e+06	8.975660e+06	8.959360e+06	8.979100e+06	8.976680e+06	8.981740e+06	8.973440e+06	8.970860e+06	8.970240e+06	8.972260e+06	8.959040e+06	8.957500e+06	8.946840e+06	8.864560e+06	8.853120e+06	8.864520e+06	8.877160e+06	8.880160e+06	8.868280e+06	8.837760e+06	8.876500e+06	8.895520e+06	8.934740e+06	8.965940e+06	8.966060e+06	8.955460e+06	8.982100e+06	8.979260e+06	8.984640e+06	8.978540e+06	8.965660e+06	8.979040e+06	8.989620e+06	8.992980e+06	8.971080e+06	8.978540e+06	8.956540e+06	8.971360e+06	8.981780e+06	8.978600e+06	8.966160e+06	8.959740e+06	8.974160e+06	8.987140e+06	8.990140e+06	8.971740e+06	8.969940e+06	8.986300e+06	8.984480e+06	8.973100e+06	8.978220e+06	8.974960e+06	8.970120e+06	8.975380e+06	8.986740e+06	8.983940e+06	8.971580e+06	8.973240e+06	8.969020e+06	8.988420e+06	8.976120e+06	8.979260e+06	8.970840e+06	8.976360e+06	8.976100e+06	8.965960e+06	8.992640e+06	8.984980e+06	8.976940e+06	8.986140e+06	8.977560e+06	8.985420e+06	8.994800e+06	8.961500e+06	8.974740e+06	8.972080e+06	8.982160e+06	8.988120e+06
8.973540e+06	8.978960e+06	8.970660e+06	8.983120e+06	8.970920e+06	8.973800e+06	8.980760e+06	8.978720e+06	8.992180e+06	8.986480e+06	8.971800e+06	8.977540e+06	8.998400e+06	8.984560e+06	8.992680e+06	8.997180e+06	8.975080e+06	8.983720e+06	8.990580e+06	8.963180e+06	8.988400e+06	8.968680e+06	8.983500e+06	8.976240e+06	8.987540e+06	8.988940e+06	8.975360e+06	8.983800e+06	8.962280e+06	8.986980e+06	8.976000e+06	8.984020e+06	8.978180e+06	8.974360e+06	8.976320e+06	8.976960e+06	8.971880e+06	8.971180e+06	8.969940e+06	8.981720e+06	8.977580e+06	8.956600e+06	8.974060e+06	8.998460e+06	8.981740e+06	8.972800e+06	8.971280e+06	9.003240e+06	8.967220e+06	8.965880e+06	8.981880e+06	8.981160e+06	8.982460e+06	8.979200e+06	8.971380e+06	8.952420e+06	8.897200e+06	8.864800e+06	8.856340e+06	8.853580e+06	8.878620e+06	8.859200e+06	8.858020e+06	8.867320e+06	8.890420e+06	8.940100e+06	8.984020e+06	8.967740e+06	8.975220e+06	8.978740e+06	8.973940e+06	8.988680e+06	8.994680e+06	8.970640e+06	8.970280e+06	8.990300e+06	8.987120e+06	8.976580e+06	8.981860e+06	8.973020e+06	8.966540e+06	8.979200e+06	8.989680e+06	8.977780e+06	8.983720e+06	8.978920e+06	8.979180e+06	8.979900e+06	8.952300e+06	8.960500e+06	8.971200e+06	8.975880e+06	8.971600e+06	8.953600e+06	8.966720e+06	8.966840e+06	8.969580e+06	8.987120e+06	8.985520e+06	8.984020e+06	8.981580e+06	8.958820e+06	8.974180e+06	8.998220e+06	8.965940e+06	8.984580e+06	8.977540e+06	8.968880e+06	8.968140e+06	8.980900e+06	8.982300e+06	8.986040e+06	8.988740e+06	8.959520e+06	8.982040e+06	8.982880e+06	8.976960e+06	8.983560e+06	8.980960e+06	8.968320e+06	8.988160e+06
8.984640e+06	8.978100e+06	8.980960e+06	8.980820e+06	8.985920e+06	8.980580e+06	9.001080e+06	8.999300e+06	8.987580e+06	8.973680e+06	8.981460e+06	8.980720e+06	8.984660e+06	8.990660e+06	8.979980e+06	8.996400e+06	8.976820e+06	8.991660e+06	8.990020e+06	8.988240e+06	8.990200e+06	8.992480e+06	8.977880e+06	8.997120e+06	8.998380e+06	8.998580e+06	9.003320e+06	8.988320e+06	8.981920e+06	9.001740e+06	8.987900e+06	8.986740e+06	8.992620e+06	8.994080e+06	8.986940e+06	8.984380e+06	8.993680e+06	8.987420e+06	8.995200e+06	8.991280e+06	8.985060e+06	8.984660e+06	8.983540e+06	8.993120e+06	8.983360e+06	8.990760e+06	8.990520e+06	8.983820e+06	8.983500e+06	8.977620e+06	8.990320e+06	8.993780e+06	8.989860e+06	8.991620e+06	8.985320e+06	8.973760e+06	8.901300e+06	8.881160e+06	8.853940e+06	8.893620e+06	8.886320e+06	8.874760e+06	8.865960e+06	8.885940e+06	8.912360e+06	8.947120e+06	8.978160e+06	8.996180e+06	8.990520e+06	8.999860e+06	8.992560e+06	8.972200e+06	8.978140e+06	8.994440e+06	8.999220e+06	8.986860e+06	9.011340e+06	8.979860e+06	8.985160e+06	8.995260e+06	8.981620e+06	8.982920e+06	8.986020e+06	8.999220e+06	8.987540e+06	8.998420e+06	8.997240e+06	8.993760e+06	8.988180e+06	8.994500e+06	9.012200e+06	9.003060e+06	8.986820e+06	8.985500e+06	8.991460e+06	8.984480e+06	8.991840e+06	8.975400e+06	8.971460e+06	8.991980e+06	8.973520e+06	8.980100e+06	8.978180e+06	8.982300e+06	8.978460e+06	8.978700e+06	8.970400e+06	8.980180e+06	9.005420e+06	8.985480e+06	8.994260e+06	8.992700e+06	8.973080e+06	8.988560e+06	8.986520e+06	8.987500e+06	8.987020e+06	8.989240e+06	8.982720e+06	8.987980e+06	8.978220e+06
8.985800e+06	8.974400e+06	8.980100e+06	8.987480e+06	8.989400e+06	8.986460e+06	9.002440e+06	8.991860e+06	8.978320e+06	8.998160e+06	8.985880e+06	8.993260e+06	8.994220e+06	8.985760e+06	8.988260e+06	8.972740e+06	8.972680e+06	8.967500e+06	8.987760e+06	8.992860e+06	8.986000e+06	8.994120e+06	8.981640e+06	8.970720e+06	8.983760e+06	8.988020e+06	8.974160e+06	8.990080e+06	8.999840e+06	8.958920e+06	8.972360e+06	8.977360e+06	8.975240e+06	8.969280e+06	8.975060e+06	8.981360e+06	8.965940e+06	8.982500e+06	8.998640e+06	8.971000e+06	8.974140e+06	8.995220e+06	8.998920e+06	8.976600e+06	8.977800e+06	8.992440e+06	8.982700e+06	8.977340e+06	8.977880e+06	8.950400e+06	8.984260e+06	8.984540e+06	8.980040e+06	8.960880e+06	8.969860e+06	8.944100e+06	8.885460e+06	8.860500e+06	8.852020e+06	8.883060e+06	8.894780e+06	8.863480e+06	8.852980e+06	8.882780e+06	8.888480e+06	8.935160e+06	8.963920e+06	8.982940e+06	8.985960e+06	8.978400e+06	8.998200e+06	8.986640e+06	8.981640e+06	8.976140e+06	8.973220e+06	9.002160e+06	8.989120e+06	8.990600e+06	8.969040e+06	8.951820e+06	8.976400e+06	8.977340e+06	8.971360e+06	8.968020e+06	8.968540e+06	8.982680e+06	8.970720e+06	8.983560e+06	8.969920e+06	8.975620e+06	8.978260e+06	8.980760e+06	8.992840e+06	8.980440e+06	8.979360e+06	8.974700e+06	8.982740e+06	8.978160e+06	8.987080e+06	8.982120e+06	8.977700e+06	8.994760e+06	8.985300e+06	8.983360e+06	8.983880e+06	8.975060e+06	8.981520e+06	8.958800e+06	8.989240e+06	8.968620e+06	8.991040e+06	8.976620e+06	8.990140e+06	8.976220e+06	8.981020e+06	8.987280e+06	8.982720e+06	8.993880e+06	8.982000e+06	8.984660e+06	8.994280e+06
8.987540e+06	8.988400e+06	8.974080e+06	8.976880e+06	8.974360e+06	8.985540e+06	8.983520e+06	8.989000e+06	8.972860e+06	8.978340e+06	8.974520e+06	8.980840e+06	8.988180e+06	8.977540e+06	8.962880e+06	8.967260e+06	8.989120e+06	8.978860e+06	8.993960e+06	8.970680e+06	8.982660e+06	8.969780e+06	8.980600e+06	8.986640e+06	8.997980e+06	8.970180e+06	8.989200e+06	8.978620e+06	8.986780e+06	8.969920e+06	8.973660e+06	8.969640e+06	8.970080e+06	8.987920e+06	8.975440e+06	8.988960e+06	8.966660e+06	8.972940e+06	8.967880e+06	8.987520e+06	8.976820e+06	8.986420e+06	8.973580e+06	8.997500e+06	8.973120e+06	8.977100e+06	8.973420e+06	8.990740e+06	8.974580e+06	8.982420e+06	8.978060e+06	8.979980e+06	8.968840e+06	8.963640e+06	8.950080e+06	8.941420e+06	8.873060e+06	8.860720e+06	8.853020e+06	8.864760e+06	8.872680e+06	8.861120e+06	8.849700e+06	8.879560e+06	8.890740e+06	8.951960e+06	8.958960e+06	8.972700e+06	8.972340e+06	8.980860e+06	8.992200e+06	8.976760e+06	8.967320e+06	8.966800e+06	8.976900e+06	8.986020e+06	8.978140e+06	8.982240e+06	8.992040e+06	8.985220e+06	8.995060e+06	8.972420e+06	8.993300e+06	9.000840e+06	8.995500e+06	9.002780e+06	9.001740e+06	8.981500e+06	8.990860e+06	8.985580e+06	8.989220e+06	8.967700e+06	8.971560e+06	8.989940e+06	8.986480e+06	8.981680e+06	8.968860e+06	8.986960e+06	8.982000e+06	9.001460e+06	8.974960e+06	8.978460e+06	8.988980e+06	8.996540e+06	8.998620e+06	8.986140e+06	8.988680e+06	8.984460e+06	8.989580e+06	8.983560e+06	8.988060e+06	8.987020e+06	8.977620e+06	8.991240e+06	8.996620e+06	8.982960e+06	8.994500e+06	8.984720e+06	8.984400e+06	9.007500e+06	8.975160e+06
8.969600e+06	8.984700e+06	8.972180e+06	8.979460e+06	8.990460e+06	8.985140e+06	8.984240e+06	8.984900e+06	8.987400e+06	8.972300e+06	8.989180e+06	8.978620e+06	8.972520e+06	8.989580e+06	8.993020e+06	8.987080e+06	8.976800e+06	8.980360e+06	8.988100e+06	8.978680e+06	8.986300e+06	8.972220e+06	8.995080e+06	8.969140e+06	8.980440e+06	8.977020e+06	8.982040e+06	8.992040e+06	8.969880e+06	8.976500e+06	8.974240e+06	8.984560e+06	8.962860e+06	8.985480e+06	8.978400e+06	8.982800e+06	8.992460e+06	8.968320e+06	8.982260e+06	8.967380e+06	8.967900e+06	8.980220e+06	8.989160e+06	8.972640e+06	8.971240e+06	8.971500e+06	8.986640e+06	8.977740e+06	8.973680e+06	8.977560e+06	8.964360e+06	8.984220e+06	8.984860e+06	8.974400e+06	8.965400e+06	8.948040e+06	8.881180e+06	8.850600e+06	8.828440e+06	8.858640e+06	8.879560e+06	8.850480e+06	8.842540e+06	8.868540e+06	8.876060e+06	8.942900e+06	8.962220e+06	8.973120e+06	8.962100e+06	8.982840e+06	8.974380e+06	8.976700e+06	8.975960e+06	8.973640e+06	8.978360e+06	8.983280e+06	8.981000e+06	8.984840e+06	8.977160e+06	8.975860e+06	8.986640e+06	8.973540e+06	8.999280e+06	8.982420e+06	8.981360e+06	8.971960e+06	8.979320e+06	8.973220e+06	8.973920e+06	8.993660e+06	8.976820e+06	8.973420e+06	8.989440e+06	8.990640e+06	9.000100e+06	8.982300e+06	8.984000e+06	8.983300e+06	8.966780e+06	8.977320e+06	8.977320e+06	8.974720e+06	8.969460e+06	8.977880e+06	8.980300e+06	8.985500e+06	8.969880e+06	8.976900e+06	8.989060e+06	8.978740e+06	8.995100e+06	8.975140e+06	8.972520e+06	8.978260e+06	8.979520e+06	8.979360e+06	8.977220e+06	8.974740e+06	8.989140e+06	8.992820e+06	8.976800e+06
8.977580e+06	8.994660e+06	8.969120e+06	8.958820e+06	8.985140e+06	8.980640e+06	8.974580e+06	8.972660e+06	8.989280e+06	8.985580e+06	8.982500e+06	8.993500e+06	8.977120e+06	8.990260e+06	9.000020e+06	8.990000e+06	8.978200e+06	8.982540e+06	8.962000e+06	8.982600e+06	8.982920e+06	8.965820e+06	8.981360e+06	8.975960e+06	8.981580e+06	8.989900e+06	8.989440e+06	8.988340e+06	8.970440e+06	8.984040e+06	8.980140e+06	8.975740e+06	8.986880e+06	8.972480e+06	8.983580e+06	8.983380e+06	8.976960e+06	8.986720e+06	8.984120e+06	8.980120e+06	8.977340e+06	8.966140e+06	8.983920e+06	8.991280e+06	8.960760e+06	8.975600e+06	8.974980e+06	8.975100e+06	8.986520e+06	8.985600e+06	8.981360e+06	8.957260e+06	8.971780e+06	8.972220e+06	8.943800e+06	8.958240e+06	8.881920e+06	8.861020e+06	8.853900e+06	8.877640e+06	8.866840e+06	8.866280e+06	8.831140e+06	8.882620e+06	8.897820e+06	8.953000e+06	8.967200e+06	8.976180e+06	8.970600e+06	8.987320e+06	8.988180e+06	8.981900e+06	8.992600e+06	9.001920e+06	8.970980e+06	8.979420e+06	8.987540e+06	8.971660e+06	8.982740e+06	8.988820e+06	8.976120e+06	8.967720e+06	8.973240e+06	8.986360e+06	8.971420e+06	8.983460e+06	8.980680e+06	8.962800e+06	8.974560e+06	8.976020e+06	8.987000e+06	8.956500e+06	8.992720e+06	8.985200e+06	8.961960e+06	8.980280e+06	8.974940e+06	8.970780e+06	8.981840e+06	8.976400e+06	8.967480e+06	8.971880e+06	8.988380e+06	8.976440e+06	8.993400e+06	8.999680e+06	8.975800e+06	8.981760e+06	8.986760e+06	8.961940e+06	8.994520e+06	8.985800e+06	8.986140e+06	8.981940e+06	8.974300e+06	8.971120e+06	8.995220e+06	8.976660e+06	8.977700e+06	8.996260e+06	8.978580e+06
8.974640e+06	8.989140e+06	8.983000e+06	8.977200e+06	8.976920e+06	8.975600e+06	8.973060e+06	8.994220e+06	8.989440e+06	8.987560e+06	9.001640e+06	8.979800e+06	8.985160e+06	8.987060e+06	8.989920e+06	8.970700e+06	8.991860e+06	8.991000e+06	8.982280e+06	8.981820e+06	8.975780e+06	8.981880e+06	8.989780e+06	8.972440e+06	8.976960e+06	8.979040e+06	8.999580e+06	8.988600e+06	8.989980e+06	8.999460e+06	8.986980e+06	8.984240e+06	8.975320e+06	8.982700e+06	8.984300e+06	8.974760e+06	8.983380e+06	9.001700e+06	8.974940e+06	8.982960e+06	8.973560e+06	8.972500e+06	8.983500e+06	8.988280e+06	8.982760e+06	8.973700e+06	9.001460e+06	8.977740e+06	8.985240e+06	8.972940e+06	8.983020e+06	8.984900e+06	8.978200e+06	8.962820e+06	8.961180e+06	8.928080e+06	8.882160e+06	8.871380e+06	8.845400e+06	8.861640e+06	8.881080e+06	8.869160e+06	8.844620e+06	8.884280e+06	8.890440e+06	8.934920e+06	8.956980e+06	8.969160e+06	8.983460e+06	8.976860e+06	8.968760e+06	8.975400e+06	8.969260e+06	8.973460e+06	8.975260e+06	8.972700e+06	8.997960e+06	8.984200e+06	8.992720e+06	8.981220e+06	8.986400e+06	9.000780e+06	8.989880e+06	8.974320e+06	8.977360e+06	8.988780e+06	8.991540e+06	8.965720e+06	8.988440e+06	8.975820e+06	8.983940e+06	8.983020e+06	8.975360e+06	8.987080e+06	8.962180e+06	8.975020e+06	8.977100e+06	8.988960e+06	8.968400e+06	8.990840e+06	8.997040e+06	8.975360e+06	8.982580e+06	8.973240e+06	8.989040e+06	8.968380e+06	8.982720e+06	8.992080e+06	8.986080e+06	8.973900e+06	8.991100e+06	8.979360e+06	8.980540e+06	8.986560e+06	8.985360e+06	8.984680e+06	8.978220e+06	8.988820e+06	8.988520e+06	8.963300e+06	8.985080e+06
8.990660e+06	9.002560e+06	8.997320e+06	8.989520e+06	8.992140e+06	8.981780e+06	8.973180e+06	8.984660e+06	8.989620e+06	8.994460e+06	8.987940e+06	8.993300e+06	8.992080e+06	9.007260e+06	9.008460e+06	9.004720e+06	8.998480e+06	8.989600e+06	9.003400e+06	8.999300e+06	9.000180e+06	8.995720e+06	9.004160e+06	8.992320e+06	8.997320e+06	9.010700e+06	8.987160e+06	8.998080e+06	9.008940e+06	8.994320e+06	8.977520e+06	9.005540e+06	8.990720e+06	8.998540e+06	8.988620e+06	9.002440e+06	8.996000e+06	8.986300e+06	8.984740e+06	8.983320e+06	9.002300e+06	8.984880e+06	8.993340e+06	9.008240e+06	8.980720e+06	8.990420e+06	8.994780e+06	8.993160e+06	8.985280e+06	8.987340e+06	8.971880e+06	8.989340e+06	8.980940e+06	8.991140e+06	8.973400e+06	8.962020e+06	8.899840e+06	8.880240e+06	8.844960e+06	8.867300e+06	8.903680e+06	8.865440e+06	8.867140e+06	8.897060e+06	8.894860e+06	8.947360e+06	8.975120e+06	8.980080e+06	8.995940e+06	9.017860e+06	8.993820e+06	8.998280e+06	9.008580e+06	8.982400e+06	8.997140e+06	9.002140e+06	8.996720e+06	8.981760e+06	8.997220e+06	8.998080e+06	8.985020e+06	9.022680e+06	8.994100e+06	8.990980e+06	8.995500e+06	8.980340e+06	8.967980e+06	8.999140e+06	8.982580e+06	9.000940e+06	8.982440e+06	8.976520e+06	8.992440e+06	8.991000e+06	9.003040e+06	8.975340e+06	8.971640e+06	8.985440e+06	8.994540e+06	8.979860e+06	8.989440e+06	8.987680e+06	8.986780e+06	8.970780e+06	8.987640e+06	8.979820e+06	8.998400e+06	8.998560e+06	8.981380e+06	8.996460e+06	8.979940e+06	9.004940e+06	8.975100e+06	8.984560e+06	8.996480e+06	8.995420e+06	8.980160e+06	8.972400e+06	8.989440e+06	8.977920e+06	8.968180e+06
8.997480e+06	9.007660e+06	8.995160e+06	8.992260e+06	8.989100e+06	8.996080e+06	8.993240e+06	9.000820e+06	8.988860e+06	8.995020e+06	9.005440e+06	8.991280e+06	8.985760e+06	8.993100e+06	8.989180e+06	8.990900e+06	8.997200e+06	8.995820e+06	8.996520e+06	9.003280e+06	8.992140e+06	8.995200e+06	8.995160e+06	8.994260e+06	9.000520e+06	9.000680e+06	8.996320e+06	9.006200e+06	8.982100e+06	8.988240e+06	9.001060e+06	8.978860e+06	8.982640e+06	8.996280e+06	9.000080e+06	8.986800e+06	9.004020e+06	8.988420e+06	8.993020e+06	9.003820e+06	8.985660e+06	8.999120e+06	8.995320e+06	8.992680e+06	8.987120e+06	8.990160e+06	8.987280e+06	9.011240e+06	9.002320e+06	9.001620e+06	9.004340e+06	8.996760e+06	8.977900e+06	8.976200e+06	8.973140e+06	8.961280e+06	8.880400e+06	8.871700e+06	8.861740e+06	8.887200e+06	8.891660e+06	8.880400e+06	8.864120e+06	8.894140e+06	8.900300e+06	8.973940e+06	8.966400e+06	8.984720e+06	8.989080e+06	8.998560e+06	8.999780e+06	8.991000e+06	8.987820e+06	8.986400e+06	8.993840e+06	8.994920e+06	9.006540e+06	8.989900e+06	9.002200e+06	8.985040e+06	8.991320e+06	8.983580e+06	8.982660e+06	9.001520e+06	8.987940e+06	9.000240e+06	8.981920e+06	9.004420e+06	8.989680e+06	8.996380e+06	9.005360e+06	8.982560e+06	8.975080e+06	8.989320e+06	8.989520e+06	8.990500e+06	9.009980e+06	8.994620e+06	8.994480e+06	8.998520e+06	8.985140e+06	9.009040e+06	9.001200e+06	8.985540e+06	8.994380e+06	9.005320e+06	8.983760e+06	8.997040e+06	8.981000e+06	8.999860e+06	9.009380e+06	8.990540e+06	8.984260e+06	8.996360e+06	9.007980e+06	9.002860e+06	9.002360e+06	9.001200e+06	8.994100e+06	8.995480e+06	9.002280e+06
8.972540e+06	8.985200e+06	8.985480e+06	8.982020e+06	8.987920e+06	8.971340e+06	8.982100e+06	8.975720e+06	8.983680e+06	9.004200e+06	8.973900e+06	8.982860e+06	8.993600e+06	8.977120e+06	8.976760e+06	8.983000e+06	8.978560e+06	8.978500e+06	8.986120e+06	8.989060e+06	8.993980e+06	8.974220e+06	8.982940e+06	8.987640e+06	8.974040e+06	8.993180e+06	8.991120e+06	8.981560e+06	8.994140e+06	8.994280e+06	8.986500e+06	8.986200e+06	8.999420e+06	8.994140e+06	9.002300e+06	8.984580e+06	8.997100e+06	8.994520e+06	9.005680e+06	8.988360e+06	8.985660e+06	8.988600e+06	8.983800e+06	8.997620e+06	8.986960e+06	8.980060e+06	8.985560e+06	8.975880e+06	8.986740e+06	8.975900e+06	8.997580e+06	8.976820e+06	8.975780e+06	8.979440e+06	8.963900e+06	8.944900e+06	8.879580e+06	8.852480e+06	8.843300e+06	8.884760e+06	8.884800e+06	8.866140e+06	8.868240e+06	8.879640e+06	8.908260e+06	8.943460e+06	8.958320e+06	8.969760e+06	8.962520e+06	8.974460e+06	8.973160e+06	8.984760e+06	8.989460e+06	8.986560e+06	8.999560e+06	8.985760e+06	8.977940e+06	8.975280e+06	8.980960e+06	8.995540e+06	8.995800e+06	8.983260e+06	8.979260e+06	8.972400e+06	9.001820e+06	8.989720e+06	8.986320e+06	8.973920e+06	8.987680e+06	8.979160e+06	8.985100e+06	8.984220e+06	8.993520e+06	8.977760e+06	8.988040e+06	8.984300e+06	8.970180e+06	8.981480e+06	8.986840e+06	8.988580e+06	8.989800e+06	8.981400e+06	8.980740e+06	8.990100e+06	9.002700e+06	8.996820e+06	8.985140e+06	8.981260e+06	8.993780e+06	8.985800e+06	8.999280e+06	8.994800e+06	8.978360e+06	8.994020e+06	8.994440e+06	8.993800e+06	8.986380e+06	9.002140e+06	8.983260e+06	8.986820e+06	9.012300e+06
8.996540e+06	8.985680e+06	8.984040e+06	8.987580e+06	8.989440e+06	8.990580e+06	8.990680e+06	8.984100e+06	8.987220e+06	8.976980e+06	8.985880e+06	8.994520e+06	8.999340e+06	8.993160e+06	8.996020e+06	8.999060e+06	8.996880e+06	8.992520e+06	8.990460e+06	9.008780e+06	9.001240e+06	9.005700e+06	8.987520e+06	8.997800e+06	8.985540e+06	8.987120e+06	9.002040e+06	8.983820e+06	8.978640e+06	8.993660e+06	8.987880e+06	8.990380e+06	8.991740e+06	8.995420e+06	8.969100e+06	8.999860e+06	8.998600e+06	8.986800e+06	8.990940e+06	8.988280e+06	8.990880e+06	8.995160e+06	8.967120e+06	8.992220e+06	8.986880e+06	8.988260e+06	8.966980e+06	8.980100e+06	8.996420e+06	8.980380e+06	8.983440e+06	8.990020e+06	8.992300e+06	8.964760e+06	8.976260e+06	8.942960e+06	8.895340e+06	8.876660e+06	8.851700e+06	8.883460e+06	8.884780e+06	8.864660e+06	8.862780e+06	8.888500e+06	8.902260e+06	8.940720e+06	8.963220e+06	8.969920e+06	8.982980e+06	8.982860e+06	8.983700e+06	9.003320e+06	8.983660e+06	8.998400e+06	8.982540e+06	8.988620e+06	8.983820e+06	9.001380e+06	8.978840e+06	8.986000e+06	8.975220e+06	8.984440e+06	8.999200e+06	9.000140e+06	8.977260e+06	8.989740e+06	8.975200e+06	8.974480e+06	8.979480e+06	9.004960e+06	8.975500e+06	8.974740e+06	8.984420e+06	8.978980e+06	8.976320e+06	8.973240e+06	8.981240e+06	8.995680e+06	8.996060e+06	8.978360e+06	8.982980e+06	8.979080e+06	8.986800e+06	8.981940e+06	8.978320e+06	8.979760e+06	8.978520e+06	8.986640e+06	8.991340e+06	8.976460e+06	8.968940e+06	8.999200e+06	8.977220e+06	8.972880e+06	8.985260e+06	9.000000e+06	8.985480e+06	8.968040e+06	8.977160e+06	9.002560e+06	8.976260e+06
8.995920e+06	9.000060e+06	8.998640e+06	8.997080e+06	9.007460e+06	8.998280e+06	9.007520e+06	9.002120e+06	8.999400e+06	8.990700e+06	9.002720e+06	9.008100e+06	9.001240e+06	9.009960e+06	9.010840e+06	8.996560e+06	9.014100e+06	9.008520e+06	8.994260e+06	8.998440e+06	9.003620e+06	9.019180e+06	9.006220e+06	9.002560e+06	9.005420e+06	9.017540e+06	9.003580e+06	8.999260e+06	8.999480e+06	9.001980e+06	9.003000e+06	9.008660e+06	8.996720e+06	9.014360e+06	9.012520e+06	8.996420e+06	9.004820e+06	9.003800e+06	8.993060e+06	9.009380e+06	8.989380e+06	9.012620e+06	9.009240e+06	8.987780e+06	9.007160e+06	9.008680e+06	9.014400e+06	8.998680e+06	9.006700e+06	9.004680e+06	9.010660e+06	8.982560e+06	8.968480e+06	8.967620e+06	8.981800e+06	8.955100e+06	8.889860e+06	8.893720e+06	8.866580e+06	8.871780e+06	8.912500e+06	8.880860e+06	8.859520e+06	8.897920e+06	8.916260e+06	8.940200e+06	8.994100e+06	8.998460e+06	9.007640e+06	9.001160e+06	8.997720e+06	8.996140e+06	8.995880e+06	9.009860e+06	8.991720e+06	8.997840e+06	8.993220e+06	8.998820e+06	8.995120e+06	9.009640e+06	8.989360e+06	8.994860e+06	9.007420e+06	8.989960e+06	8.993780e+06	9.005820e+06	8.986380e+06	9.015400e+06	9.017520e+06	8.995840e+06	9.006240e+06	8.998180e+06	8.987140e+06	9.002980e+06	9.000260e+06	8.989460e+06	9.002620e+06	8.984680e+06	8.997040e+06	8.998640e+06	9.007480e+06	8.986860e+06	9.002540e+06	8.990480e+06	9.002080e+06	9.006280e+06	8.993880e+06	9.010360e+06	8.999780e+06	9.000000e+06	8.999220e+06	8.990200e+06	8.988920e+06	8.975340e+06	8.986240e+06	8.977060e+06	8.999460e+06	8.993940e+06	8.994280e+06	8.995080e+06	8.990460e+06
9.005280e+06	9.003100e+06	8.997500e+06	9.010480e+06	9.004260e+06	8.994500e+06	8.987060e+06	8.988120e+06	8.986800e+06	9.004180e+06	8.997200e+06	8.992320e+06	9.003660e+06	8.996380e+06	8.990980e+06	8.999720e+06	9.006400e+06	8.997640e+06	8.994640e+06	9.000540e+06	9.002200e+06	9.001000e+06	8.996700e+06	9.012540e+06	9.004000e+06	9.016920e+06	9.006400e+06	9.008180e+06	8.983460e+06	8.997100e+06	8.998220e+06	9.008120e+06	8.996280e+06	8.978120e+06	9.008820e+06	9.004080e+06	8.993640e+06	9.007560e+06	9.000480e+06	8.974500e+06	9.005400e+06	8.983380e+06	8.974280e+06	8.993540e+06	9.003760e+06	8.998400e+06	8.986280e+06	8.989520e+06	8.990600e+06	8.995280e+06	8.991120e+06	8.994680e+06	8.980740e+06	8.973280e+06	8.979320e+06	8.960540e+06	8.903580e+06	8.868640e+06	8.872560e+06	8.880820e+06	8.889040e+06	8.878200e+06	8.867960e+06	8.892800e+06	8.913680e+06	8.965140e+06	8.970240e+06	8.994660e+06	8.996600e+06	9.007980e+06	8.988020e+06	8.987400e+06	9.012900e+06	8.997620e+06	8.993980e+06	8.966140e+06	8.992840e+06	9.001600e+06	8.999340e+06	8.995640e+06	9.005420e+06	8.994100e+06	8.985540e+06	9.005760e+06	9.016860e+06	9.000280e+06	8.992720e+06	8.990480e+06	8.999860e+06	9.009800e+06	9.003280e+06	9.007540e+06	8.990820e+06	8.995440e+06	8.995740e+06	9.011280e+06	9.001420e+06	8.995740e+06	8.997060e+06	8.988680e+06	9.003440e+06	8.984520e+06	9.002680e+06	9.001240e+06	8.994260e+06	8.993840e+06	9.013340e+06	9.004060e+06	8.997600e+06	8.988400e+06	8.994260e+06	8.990480e+06	8.989380e+06	8.999220e+06	8.998400e+06	9.000100e+06	8.987340e+06	8.987400e+06	8.983400e+06	8.993880e+06	8.987280e+06
9.003920e+06	8.996880e+06	8.984300e+06	8.992920e+06	8.998500e+06	8.990460e+06	8.992440e+06	8.990760e+06	8.991060e+06	8.993900e+06	8.993000e+06	8.994280e+06	8.992640e+06	9.006280e+06	8.991220e+06	8.995520e+06	9.004700e+06	8.993140e+06	9.013000e+06	8.998500e+06	9.005300e+06	8.986880e+06	8.982120e+06	9.005400e+06	9.002200e+06	8.990780e+06	9.000860e+06	8.989660e+06	8.997420e+06	8.975320e+06	8.998260e+06	9.009180e+06	8.997920e+06	8.991680e+06	8.981300e+06	8.977660e+06	8.976840e+06	8.993060e+06	8.996620e+06	8.993140e+06	8.985340e+06	8.986020e+06	8.987780e+06	8.987320e+06	9.009500e+06	9.012860e+06	8.992260e+06	8.993740e+06	8.980380e+06	8.967120e+06	8.990640e+06	8.988000e+06	8.984300e+06	8.976680e+06	8.973980e+06	8.957340e+06	8.895780e+06	8.879600e+06	8.863760e+06	8.889120e+06	8.890320e+06	8.883160e+06	8.868080e+06	8.891100e+06	8.899640e+06	8.956680e+06	8.986180e+06	8.995680e+06	8.988740e+06	8.999040e+06	8.981400e+06	8.996420e+06	8.978180e+06	9.004760e+06	9.009660e+06	9.005260e+06	9.002800e+06	9.006960e+06	8.985940e+06	9.009060e+06	8.999980e+06	9.015620e+06	9.024040e+06	8.996480e+06	9.012520e+06	9.019620e+06	9.014860e+06	9.007260e+06	8.999700e+06	9.012520e+06	8.995860e+06	9.008340e+06	8.992160e+06	8.999600e+06	8.998240e+06	9.011540e+06	8.991460e+06	8.994880e+06	9.024220e+06	9.009500e+06	8.995280e+06	8.986460e+06	8.993440e+06	8.990380e+06	8.988740e+06	8.998900e+06	8.983620e+06	8.988440e+06	9.006620e+06	9.013560e+06	8.997200e+06	9.003600e+06	8.990200e+06	8.976980e+06	8.995260e+06	8.995440e+06	9.002140e+06	8.995860e+06	8.994660e+06	9.003460e+06	9.011820e+06
8.989940e+06	9.011680e+06	9.000300e+06	9.001740e+06	8.995940e+06	9.000480e+06	8.988680e+06	8.985080e+06	8.996480e+06	8.988620e+06	8.979780e+06	8.987940e+06	8.997240e+06	9.011940e+06	9.004540e+06	9.009720e+06	9.004440e+06	8.983860e+06	8.984520e+06	8.998080e+06	8.979120e+06	9.004000e+06	8.976240e+06	8.998620e+06	9.004360e+06	8.991720e+06	8.987120e+06	9.013540e+06	8.999480e+06	8.999460e+06	8.982940e+06	9.001900e+06	9.001320e+06	8.991420e+06	8.986360e+06	9.006740e+06	9.005200e+06	8.995400e+06	8.987200e+06	8.997500e+06	9.000000e+06	8.994700e+06	8.999780e+06	8.997840e+06	8.988340e+06	8.978800e+06	8.986800e+06	8.994260e+06	9.013700e+06	8.993220e+06	8.995840e+06	8.995840e+06	8.992940e+06	8.978020e+06	8.983520e+06	8.944360e+06	8.904660e+06	8.911800e+06	8.850440e+06	8.876360e+06	8.903500e+06	8.897460e+06	8.876140e+06	8.899820e+06	8.914200e+06	8.969880e+06	8.985480e+06	8.976560e+06	9.003920e+06	8.989740e+06	8.988660e+06	8.995580e+06	8.993200e+06	8.991420e+06	8.987360e+06	9.001620e+06	9.002720e+06	9.003540e+06	8.994800e+06	8.994640e+06	8.998720e+06	8.989700e+06	8.997420e+06	8.991740e+06	8.988500e+06	8.995560e+06	8.990100e+06	9.015780e+06	8.994960e+06	8.999120e+06	8.982040e+06	9.000940e+06	8.984320e+06	8.999380e+06	8.994160e+06	8.990420e+06	8.984700e+06	8.978980e+06	9.001280e+06	8.990500e+06	8.984680e+06	8.976060e+06	9.001680e+06	8.996280e+06	8.985140e+06	8.996800e+06	8.981500e+06	9.000460e+06	9.000860e+06	8.974880e+06	9.002640e+06	8.987600e+06	9.004180e+06	8.998700e+06	8.986080e+06	8.989060e+06	8.982000e+06	8.981560e+06	8.984160e+06	9.010460e+06	8.980800e+06
9.017040e+06	9.008640e+06	9.009280e+06	9.003280e+06	9.005200e+06	9.000820e+06	9.009260e+06	9.005920e+06	9.024940e+06	9.013120e+06	9.029420e+06	9.017960e+06	9.013380e+06	9.013740e+06	9.006140e+06	9.027680e+06	9.028220e+06	9.006960e+06	9.021680e+06	9.012200e+06	9.009780e+06	9.017200e+06	9.012880e+06	9.027220e+06	9.004140e+06	9.037300e+06	9.009780e+06	9.002720e+06	9.019960e+06	9.006520e+06	9.015160e+06	9.005720e+06	9.010960e+06	9.019560e+06	9.009920e+06	9.025400e+06	9.013320e+06	9.017800e+06	9.007420e+06	9.001640e+06	9.015840e+06	9.005460e+06	9.010860e+06	9.010400e+06	9.015960e+06	9.017520e+06	9.010420e+06	8.997140e+06	8.979080e+06	8.995140e+06	8.994160e+06	9.020320e+06	9.001940e+06	8.976160e+06	8.976860e+06	8.970380e+06	8.898280e+06	8.887680e+06	8.876900e+06	8.873780e+06	8.894540e+06	8.881100e+06	8.868780e+06	8.897940e+06	8.906720e+06	8.960180e+06	8.968940e+06	8.987320e+06	8.986180e+06	8.982860e+06	8.989860e+06	8.998020e+06	9.001120e+06	8.991240e+06	8.998560e+06	8.982540e+06	9.007440e+06	8.997280e+06	9.005200e+06	8.999640e+06	8.992700e+06	8.999540e+06	9.006060e+06	8.998480e+06	9.007720e+06	9.006700e+06	9.001740e+06	8.997000e+06	8.989440e+06	8.999600e+06	8.988980e+06	9.002640e+06	9.006440e+06	8.981340e+06	8.989140e+06	8.996840e+06	8.999320e+06	8.998400e+06	8.992940e+06	9.002300e+06	8.992180e+06	9.011100e+06	9.008960e+06	8.994960e+06	9.005940e+06	8.985940e+06	9.008460e+06	9.013600e+06	9.019780e+06	8.993180e+06	9.006060e+06	9.002240e+06	8.993140e+06	9.005740e+06	8.980500e+06	8.996100e+06	8.998000e+06	8.999720e+06	8.993160e+06	8.982100e+06	9.012220e+06
9.009240e+06	9.013540e+06	9.006440e+06	9.011400e+06	9.014400e+06	9.015220e+06	9.015040e+06	9.000240e+06	9.011900e+06	9.021320e+06	9.022200e+06	9.031180e+06	9.021060e+06	9.017280e+06	9.010300e+06	9.020660e+06	8.996940e+06	9.008660e+06	9.019340e+06	9.014620e+06	9.030440e+06	9.027800e+06	9.020740e+06	9.017900e+06	9.026800e+06	9.013820e+06	9.016420e+06	9.019520e+06	9.022120e+06	9.021860e+06	9.028480e+06	9.027740e+06	9.031080e+06	9.029260e+06	9.020340e+06	9.023080e+06	9.021600e+06	9.026160e+06	9.034440e+06	9.013900e+06	9.017620e+06	9.023860e+06	9.017120e+06	9.033300e+06	9.029180e+06	9.030760e+06	9.013940e+06	9.030000e+06	9.014280e+06	9.029060e+06	9.026540e+06	9.017000e+06	9.011160e+06	9.015080e+06	8.999280e+06	8.994660e+06	8.923240e+06	8.910420e+06	8.887500e+06	8.892440e+06	8.932620e+06	8.893500e+06	8.895360e+06	8.925460e+06	8.927020e+06	8.959540e+06	8.990160e+06	9.006000e+06	9.021040e+06	9.019240e+06	9.011540e+06	9.011040e+06	9.033240e+06	9.013680e+06	9.026480e+06	9.030880e+06	9.018020e+06	8.996220e+06	9.009220e+06	9.012540e+06	9.002860e+06	8.995740e+06	9.023100e+06	9.005500e+06	9.020500e+06	9.001980e+06	9.010080e+06	8.999360e+06	8.995760e+06	8.995400e+06	9.010160e+06	9.010060e+06	9.009480e+06	9.002120e+06	9.002180e+06	9.008820e+06	9.007720e+06	9.005060e+06	9.001680e+06	9.003260e+06	9.021680e+06	9.014120e+06	9.021040e+06	9.005880e+06	9.026960e+06	9.009340e+06	9.007020e+06	8.999560e+06	9.006080e+06	9.013360e+06	9.017700e+06	9.005220e+06	9.021580e+06	9.013260e+06	9.014840e+06	9.001840e+06	9.001880e+06	9.000580e+06	9.006420e+06	9.021400e+06	9.012200e+06
9.022380e+06	9.020080e+06	9.028560e+06	9.023640e+06	9.033820e+06	9.027040e+06	9.021240e+06	9.020760e+06	9.017300e+06	9.013800e+06	9.016060e+06	9.027820e+06	9.027600e+06	9.027600e+06	9.012280e+06	9.019000e+06	9.002040e+06	9.025800e+06	9.010680e+06	9.025100e+06	8.997800e+06	9.022240e+06	9.025300e+06	9.021940e+06	9.009480e+06	9.008700e+06	9.011720e+06	8.998740e+06	9.028060e+06	9.026760e+06	9.019980e+06	9.024940e+06	9.012940e+06	9.007720e+06	9.006400e+06	9.017740e+06	9.013140e+06	9.013800e+06	9.019720e+06	9.012500e+06	9.022760e+06	9.024460e+06	9.016640e+06	9.009520e+06	9.017980e+06	9.018680e+06	9.001480e+06	9.019060e+06	9.026380e+06	9.023080e+06	8.998460e+06	9.029100e+06	9.021460e+06	9.022840e+06	8.990420e+06	8.969500e+06	8.909660e+06	8.912780e+06	8.896340e+06	8.909840e+06	8.900960e+06	8.893300e+06	8.886800e+06	8.909300e+06	8.913480e+06	8.980660e+06	8.991600e+06	9.014580e+06	9.010320e+06	9.007640e+06	9.013140e+06	9.013420e+06	9.012240e+06	9.021800e+06	9.019980e+06	9.009900e+06	9.012420e+06	9.000940e+06	9.009240e+06	8.995040e+06	8.999260e+06	9.001980e+06	9.006660e+06	9.025180e+06	9.015880e+06	9.016480e+06	9.023620e+06	9.016480e+06	9.008560e+06	9.021520e+06	9.010440e+06	9.013240e+06	9.004740e+06	9.004340e+06	9.004900e+06	9.008200e+06	9.008280e+06	9.007900e+06	8.989720e+06	9.032940e+06	9.012580e+06	9.019560e+06	9.013940e+06	9.035960e+06	9.014620e+06	9.006620e+06	8.991800e+06	9.015740e+06	9.010380e+06	9.022720e+06	9.011460e+06	9.012520e+06	9.008780e+06	9.013180e+06	9.006740e+06	9.042220e+06	9.011680e+06	9.023580e+06	9.004800e+06	9.020020e+06	8.998100e+06
9.045160e+06	9.036060e+06	9.050680e+06	9.049560e+06	9.051380e+06	9.038180e+06	9.025940e+06	9.046120e+06	9.040240e+06	9.033700e+06	9.038500e+06	9.054500e+06	9.039440e+06	9.034500e+06	9.031080e+06	9.032740e+06	9.043980e+06	9.041580e+06	9.028120e+06	9.023440e+06	9.037800e+06	9.042040e+06	9.037500e+06	9.021500e+06	9.036860e+06	9.046320e+06	9.048160e+06	9.036860e+06	9.031820e+06	9.020200e+06	9.037080e+06	9.028000e+06	9.041380e+06	9.038020e+06	9.035720e+06	9.040760e+06	9.028300e+06	9.021240e+06	9.043840e+06	9.054900e+06	9.022300e+06	9.039060e+06	9.052740e+06	9.040600e+06	9.042380e+06	9.027920e+06	9.050760e+06	9.032560e+06	9.048360e+06	9.033560e+06	9.038460e+06	9.047700e+06	9.034380e+06	9.034760e+06	9.015860e+06	8.998780e+06	8.942460e+06	8.922000e+06	8.905520e+06	8.927980e+06	8.942920e+06	8.929560e+06	8.914020e+06	8.931020e+06	8.963220e+06	9.008280e+06	9.029700e+06	9.050120e+06	9.029940e+06	9.041220e+06	9.038040e+06	9.032720e+06	9.048940e+06	9.049900e+06	9.048440e+06	9.045620e+06	9.053740e+06	9.045140e+06	9.048720e+06	9.050620e+06	9.043360e+06	9.037220e+06	9.037700e+06	9.049280e+06	9.016820e+06	9.043280e+06	9.057380e+06	9.036760e+06	9.043400e+06	9.040560e+06	9.038180e+06	9.037980e+06	9.031600e+06	9.044500e+06	9.027380e+06	9.036340e+06	9.043200e+06	9.049940e+06	9.031560e+06	9.028600e+06	9.049240e+06	9.046580e+06	9.018460e+06	9.039900e+06	9.020540e+06	9.025320e+06	9.025480e+06	9.030380e+06	9.036100e+06	9.038600e+06	9.026260e+06	9.038100e+06	9.018260e+06	9.035520e+06	9.011100e+06	9.021360e+06	9.016640e+06	9.017240e+06	9.033920e+06	9.019520e+06	9.040820e+06
9.044920e+06	9.055920e+06	9.051800e+06	9.050500e+06	9.044000e+06	9.050720e+06	9.051760e+06	9.047140e+06	9.046520e+06	9.049580e+06	9.040120e+06	9.033980e+06	9.056220e+06	9.057080e+06	9.045700e+06	9.042740e+06	9.027760e+06	9.050800e+06	9.043420e+06	9.051900e+06	9.040700e+06	9.041680e+06	9.050800e+06	9.037360e+06	9.057000e+06	9.045000e+06	9.040140e+06	9.044980e+06	9.044600e+06	9.038680e+06	9.053960e+06	9.034040e+06	9.049540e+06	9.049020e+06	9.037340e+06	9.037200e+06	9.029920e+06	9.049880e+06	9.042380e+06	9.037240e+06	9.044980e+06	9.029120e+06	9.045680e+06	9.039440e+06	9.034680e+06	9.046160e+06	9.043420e+06	9.038880e+06	9.045040e+06	9.045400e+06	9.041580e+06	9.031460e+06	9.034300e+06	9.028620e+06	9.026480e+06	9.014140e+06	8.948660e+06	8.919100e+06	8.902320e+06	8.921120e+06	8.943060e+06	8.932760e+06	8.917960e+06	8.947460e+06	8.956300e+06	9.006540e+06	9.033000e+06	9.014700e+06	9.038500e+06	9.031840e+06	9.047220e+06	9.030320e+06	9.034040e+06	9.036720e+06	9.038160e+06	9.025280e+06	9.037280e+06	9.034480e+06	9.037020e+06	9.045100e+06	9.042760e+06	9.050980e+06	9.035600e+06	9.051580e+06	9.048020e+06	9.058320e+06	9.039360e+06	9.035900e+06	9.046100e+06	9.039840e+06	9.045240e+06	9.046720e+06	9.051960e+06	9.039480e+06	9.032380e+06	9.049800e+06	9.046940e+06	9.046300e+06	9.037860e+06	9.035240e+06	9.046600e+06	9.048420e+06	9.054900e+06	9.055300e+06	9.040700e+06	9.046240e+06	9.033300e+06	9.050120e+06	9.041760e+06	9.042900e+06	9.065340e+06	9.044960e+06	9.062040e+06	9.038140e+06	9.043800e+06	9.053280e+06	9.047120e+06	9.037240e+06	9.037820e+06	9.046700e+06	9.046100e+06
9.055840e+06	9.042480e+06	9.042380e+06	9.050880e+06	9.035280e+06	9.067380e+06	9.031800e+06	9.040960e+06	9.032680e+06	9.033180e+06	9.044180e+06	9.031460e+06	9.043140e+06	9.052460e+06	9.041500e+06	9.038320e+06	9.047440e+06	9.037960e+06	9.047500e+06	9.056700e+06	9.037560e+06	9.042740e+06	9.050020e+06	9.026920e+06	9.034660e+06	9.054460e+06	9.038480e+06	9.041500e+06	9.047240e+06	9.030140e+06	9.050940e+06	9.038360e+06	9.044980e+06	9.052520e+06	9.041320e+06	9.046140e+06	9.045480e+06	9.039980e+06	9.055240e+06	9.032520e+06	9.056000e+06	9.029900e+06	9.029440e+06	9.028620e+06	9.036840e+06	9.042720e+06	9.038720e+06	9.046320e+06	9.035120e+06	9.043060e+06	9.037480e+06	9.031540e+06	9.030440e+06	9.035260e+06	9.038280e+06	9.008460e+06	8.951300e+06	8.932120e+06	8.901180e+06	8.940780e+06	8.943820e+06	8.922020e+06	8.904380e+06	8.940820e+06	8.953200e+06	8.999800e+06	9.031220e+06	9.033240e+06	9.038860e+06	9.048360e+06	9.034400e+06	9.036780e+06	9.055480e+06	9.041640e+06	9.048600e+06	9.054940e+06	9.036740e+06	9.035400e+06	9.048900e+06	9.044540e+06	9.043860e+06	9.043740e+06	9.063700e+06	9.035180e+06	9.039000e+06	9.032120e+06	9.031840e+06	9.053660e+06	9.053520e+06	9.043280e+06	9.045180e+06	9.038140e+06	9.038260e+06	9.039360e+06	9.035940e+06	9.048880e+06	9.042180e+06	9.031660e+06	9.052180e+06	9.039480e+06	9.067080e+06	9.036360e+06	9.057600e+06	9.045520e+06	9.050960e+06	9.059700e+06	9.066920e+06	9.051620e+06	9.067780e+06	9.046340e+06	9.057960e+06	9.049000e+06	9.049960e+06	9.039020e+06	9.047880e+06	9.045040e+06	9.050620e+06	9.044720e+06	9.044440e+06	9.061680e+06	9.023060e+06
8.993520e+06	8.973620e+06	8.993760e+06	8.989260e+06	8.998640e+06	8.993180e+06	9.001320e+06	8.978720e+06	8.989520e+06	8.988240e+06	8.970660e+06	8.979820e+06	8.995300e+06	8.991000e+06	8.989700e+06	8.987620e+06	8.971780e+06	8.990280e+06	8.984460e+06	8.999860e+06	8.987940e+06	8.974220e+06	8.995120e+06	8.996300e+06	8.988860e+06	8.986480e+06	8.999960e+06	8.981740e+06	8.983780e+06	8.994700e+06	8.992280e+06	9.010040e+06	8.990240e+06	8.983140e+06	9.001580e+06	8.979960e+06	8.999900e+06	9.007560e+06	8.997640e+06	9.014980e+06	9.004360e+06	9.020680e+06	9.008340e+06	9.003820e+06	9.016620e+06	9.020040e+06	9.013640e+06	9.048700e+06	9.028660e+06	9.032660e+06	9.034720e+06	9.027640e+06	9.040000e+06	9.047500e+06	9.038740e+06	9.004040e+06	8.940180e+06	8.929520e+06	8.916400e+06	8.933260e+06	8.948420e+06	8.924240e+06	8.918900e+06	8.947440e+06	8.966960e+06	9.008700e+06	9.010340e+06	9.040120e+06	9.036140e+06	9.039540e+06	9.026560e+06	9.029760e+06	9.028500e+06	9.037920e+06	9.016680e+06	9.046320e+06	9.024120e+06	9.016820e+06	9.012320e+06	9.015680e+06	9.012960e+06	9.022700e+06	9.024700e+06	9.012720e+06	9.034140e+06	9.038060e+06	9.043200e+06	9.039480e+06	9.032400e+06	9.043540e+06	9.043280e+06	9.037720e+06	9.042700e+06	9.034020e+06	9.035660e+06	9.025460e+06	9.010920e+06	9.039380e+06	9.018940e+06	9.037080e+06	9.027320e+06	9.025640e+06	9.011920e+06	9.038160e+06	9.035380e+06	9.032180e+06	9.043840e+06	9.025900e+06	9.035520e+06	9.042780e+06	9.041000e+06	9.033480e+06	9.039060e+06	9.037180e+06	9.035380e+06	9.049120e+06	9.032380e+06	9.052340e+06	9.036280e+06	9.041400e+06	9.058620e+06
8.954680e+06	8.969320e+06	8.957140e+06	8.963640e+06	8.953660e+06	8.959300e+06	8.970400e+06	8.961220e+06	8.957540e+06	8.954580e+06	8.958980e+06	8.957880e+06	8.958900e+06	8.966200e+06	8.958980e+06	8.947900e+06	8.960660e+06	8.965440e+06	8.958020e+06	8.957720e+06	8.962720e+06	8.957680e+06	8.969220e+06	8.954340e+06	8.954720e+06	8.951600e+06	8.963960e+06	8.973780e+06	8.971460e+06	8.961220e+06	8.948080e+06	8.969680e+06	8.945660e+06	8.966860e+06	8.951960e+06	8.951160e+06	8.962100e+06	8.954740e+06	8.949500e+06	8.950000e+06	8.951800e+06	8.950860e+06	8.943840e+06	8.968880e+06	8.951520e+06	8.962240e+06	8.959180e+06	8.953600e+06	8.956660e+06	8.961240e+06	8.945660e+06	8.963240e+06	8.965160e+06	8.957700e+06	8.961100e+06	8.917660e+06	8.866200e+06	8.859020e+06	8.836260e+06	8.845780e+06	8.870920e+06	8.844780e+06	8.840740e+06	8.844960e+06	8.881840e+06	8.913820e+06	8.947720e+06	8.963620e+06	8.958520e+06	8.967380e+06	8.964920e+06	8.963040e+06	8.979460e+06	8.973600e+06	8.962780e+06	8.970520e+06	8.976360e+06	8.969700e+06	8.975760e+06	8.972420e+06	8.961800e+06	8.992180e+06	8.976820e+06	8.971480e+06	8.983800e+06	8.975940e+06	8.978900e+06	8.973720e+06	8.980800e+06	8.971820e+06	8.969940e+06	8.977140e+06	8.960420e+06	8.986160e+06	8.959400e+06	8.962100e+06	8.970420e+06	8.979280e+06	8.966360e+06	8.978840e+06	8.959540e+06	8.983260e+06	8.981900e+06	8.962780e+06	8.978360e+06	8.966200e+06	8.984540e+06	8.985220e+06	8.972800e+06	8.980060e+06	8.965900e+06	8.991000e+06	8.976720e+06	8.972320e+06	8.990200e+06	8.993860e+06	8.978720e+06	8.980860e+06	8.966460e+06	8.994280e+06	8.977620e+06
8.940480e+06	8.968400e+06	8.964460e+06	8.956060e+06	8.965820e+06	8.971720e+06	8.975140e+06	8.969960e+06	8.941400e+06	8.961440e+06	8.950000e+06	8.966360e+06	8.972340e+06	8.954560e+06	8.952260e+06	8.958640e+06	8.956960e+06	8.966680e+06	8.968280e+06	8.978200e+06	8.970760e+06	8.964560e+06	8.966820e+06	8.968660e+06	8.969240e+06	8.971640e+06	8.967680e+06	8.977460e+06	8.955100e+06	8.950620e+06	8.972980e+06	8.976580e+06	8.965680e+06	8.958140e+06	8.961820e+06	8.962980e+06	8.977660e+06	8.937980e+06	8.976160e+06	8.976240e+06	8.957360e+06	8.968480e+06	8.956380e+06	8.957540e+06	8.956700e+06	8.963740e+06	8.968400e+06	8.961400e+06	8.969380e+06	8.972300e+06	8.950780e+06	8.941340e+06	8.960900e+06	8.942200e+06	8.939700e+06	8.928420e+06	8.850560e+06	8.842480e+06	8.817580e+06	8.840000e+06	8.865960e+06	8.861840e+06	8.834480e+06	8.859200e+06	8.887400e+06	8.921340e+06	8.940960e+06	8.946820e+06	8.938940e+06	8.954800e+06	8.956580e+06	8.952240e+06	8.966900e+06	8.964240e+06	8.974360e+06	8.931280e+06	8.952620e+06	8.955660e+06	8.972340e+06	8.971080e+06	8.956240e+06	8.958720e+06	8.966900e+06	8.957600e+06	8.962940e+06	8.962820e+06	8.957420e+06	8.956700e+06	8.936160e+06	8.964000e+06	8.961720e+06	8.966500e+06	8.949240e+06	8.958260e+06	8.960060e+06	8.957520e+06	8.965240e+06	8.977260e+06	8.965120e+06	8.965300e+06	8.960460e+06	8.971540e+06	8.953640e+06	8.973120e+06	8.957260e+06	8.951160e+06	8.976260e+06	8.968740e+06	8.949540e+06	8.962560e+06	8.969640e+06	8.966140e+06	8.964200e+06	8.976440e+06	8.965360e+06	8.962800e+06	8.956220e+06	8.953180e+06	8.968460e+06	8.968420e+06	8.953100e+06
8.942540e+06	8.916940e+06	8.934340e+06	8.931900e+06	8.917420e+06	8.943060e+06	8.927260e+06	8.934260e+06	8.934660e+06	8.928000e+06	8.927760e+06	8.930800e+06	8.931980e+06	8.910720e+06	8.916140e+06	8.922200e+06	8.928880e+06	8.930880e+06	8.918160e+06	8.931240e+06	8.909140e+06	8.945980e+06	8.939200e+06	8.932560e+06	8.929740e+06	8.919980e+06	8.929740e+06	8.924960e+06	8.907820e+06	8.932520e+06	8.912100e+06	8.913940e+06	8.919640e+06	8.914540e+06	8.920720e+06	8.905960e+06	8.928560e+06	8.915220e+06	8.907000e+06	8.939240e+06	8.932080e+06	8.922320e+06	8.939440e+06	8.929920e+06	8.934840e+06	8.932340e+06	8.922160e+06	8.912120e+06	8.913900e+06	8.925280e+06	8.931900e+06	8.912500e+06	8.926880e+06	8.917300e+06	8.911900e+06	8.887140e+06	8.826160e+06	8.803700e+06	8.785660e+06	8.815520e+06	8.837360e+06	8.825600e+06	8.802020e+06	8.828820e+06	8.852000e+06	8.892260e+06	8.917320e+06	8.925340e+06	8.913280e+06	8.927460e+06	8.921140e+06	8.943800e+06	8.931500e+06	8.920900e+06	8.935760e+06	8.941080e+06	8.922300e+06	8.915300e+06	8.923480e+06	8.910020e+06	8.926740e+06	8.922260e+06	8.917960e+06	8.919660e+06	8.923360e+06	8.913340e+06	8.921420e+06	8.931900e+06	8.930360e+06	8.906820e+06	8.931240e+06	8.952000e+06	8.952820e+06	8.933940e+06	8.934680e+06	8.946200e+06	8.930080e+06	8.929880e+06	8.953720e+06	8.931120e+06	8.937600e+06	8.934660e+06	8.958060e+06	8.951240e+06	8.936060e+06	8.954560e+06	8.951820e+06	8.948920e+06	8.945960e+06	8.948040e+06	8.949800e+06	8.951360e+06	8.960860e+06	8.945160e+06	8.967800e+06	8.944580e+06	8.951880e+06	8.960540e+06	8.967220e+06	8.944140e+06	8.959060e+06
8.926600e+06	8.919120e+06	8.916220e+06	8.897720e+06	8.905020e+06	8.914000e+06	8.918680e+06	8.925600e+06	8.915840e+06	8.926540e+06	8.926440e+06	8.922560e+06	8.906680e+06	8.923920e+06	8.929620e+06	8.911400e+06	8.929320e+06	8.928880e+06	8.909580e+06	8.926940e+06	8.910200e+06	8.912380e+06	8.917640e+06	8.917380e+06	8.906700e+06	8.933720e+06	8.921980e+06	8.939980e+06	8.924680e+06	8.902660e+06	8.916440e+06	8.924460e+06	8.920920e+06	8.930600e+06	8.925840e+06	8.911000e+06	8.935080e+06	8.923560e+06	8.942560e+06	8.924480e+06	8.927080e+06	8.932960e+06	8.919040e+06	8.940500e+06	8.916100e+06	8.953340e+06	8.934700e+06	8.922920e+06	8.927380e+06	8.924080e+06	8.910240e+06	8.908820e+06	8.928760e+06	8.904680e+06	8.907520e+06	8.891640e+06	8.835160e+06	8.806900e+06	8.801920e+06	8.797320e+06	8.829640e+06	8.800060e+06	8.808720e+06	8.806920e+06	8.834180e+06	8.882440e+06	8.893680e+06	8.919860e+06	8.905700e+06	8.938520e+06	8.928860e+06	8.931720e+06	8.909420e+06	8.922700e+06	8.922060e+06	8.918220e+06	8.909500e+06	8.920960e+06	8.930120e+06	8.918720e+06	8.909600e+06	8.915280e+06	8.926220e+06	8.943180e+06	8.908520e+06	8.919420e+06	8.930860e+06	8.920240e+06	8.923480e+06	8.921640e+06	8.918440e+06	8.923540e+06	8.928700e+06	8.916560e+06	8.929140e+06	8.919820e+06	8.923920e+06	8.918760e+06	8.931040e+06	8.934340e+06	8.927860e+06	8.939100e+06	8.950560e+06	8.930020e+06	8.947960e+06	8.923040e+06	8.933280e+06	8.928120e+06	8.914920e+06	8.928840e+06	8.911360e+06	8.922740e+06	8.939200e+06	8.941160e+06	8.942240e+06	8.931280e+06	8.924160e+06	8.930900e+06	8.933580e+06	8.928880e+06	8.933000e+06
8.916580e+06	8.933160e+06	8.911140e+06	8.927480e+06	8.912260e+06	8.923020e+06	8.921180e+06	8.913420e+06	8.920760e+06	8.922220e+06	8.917020e+06	8.917400e+06	8.904320e+06	8.903100e+06	8.913600e+06	8.907300e+06	8.909120e+06	8.902880e+06	8.908660e+06	8.913080e+06	8.921960e+06	8.920580e+06	8.901560e+06	8.899380e+06	8.899640e+06	8.902340e+06	8.913440e+06	8.912180e+06	8.914860e+06	8.916180e+06	8.899800e+06	8.910420e+06	8.920380e+06	8.919600e+06	8.923180e+06	8.898440e+06	8.911180e+06	8.909620e+06	8.907540e+06	8.922920e+06	8.916020e+06	8.924620e+06	8.922680e+06	8.902360e+06	8.907820e+06	8.916940e+06	8.898740e+06	8.907480e+06	8.918860e+06	8.920520e+06	8.901340e+06	8.912960e+06	8.897380e+06	8.898160e+06	8.903640e+06	8.871220e+06	8.795460e+06	8.794300e+06	8.796740e+06	8.785540e+06	8.806100e+06	8.785460e+06	8.782540e+06	8.807080e+06	8.828620e+06	8.893280e+06	8.904400e+06	8.902260e+06	8.904000e+06	8.922660e+06	8.916260e+06	8.907300e+06	8.923800e+06	8.926560e+06	8.921640e+06	8.911280e+06	8.908700e+06	8.906580e+06	8.915400e+06	8.923640e+06	8.920520e+06	8.919120e+06	8.916940e+06	8.949780e+06	8.919860e+06	8.913380e+06	8.907660e+06	8.906440e+06	8.897220e+06	8.913020e+06	8.907280e+06	8.903000e+06	8.897340e+06	8.919360e+06	8.898500e+06	8.918080e+06	8.903520e+06	8.908140e+06	8.919100e+06	8.904420e+06	8.924440e+06	8.920580e+06	8.922060e+06	8.909360e+06	8.923540e+06	8.914940e+06	8.922380e+06	8.935700e+06	8.918680e+06	8.932560e+06	8.924040e+06	8.910340e+06	8.927680e+06	8.903520e+06	8.907900e+06	8.906280e+06	8.932460e+06	8.936420e+06	8.918600e+06	8.935680e+06	8.910000e+06
8.916360e+06	8.913420e+06	8.913960e+06	8.915720e+06	8.906520e+06	8.933440e+06	8.920620e+06	8.904840e+06	8.898740e+06	8.902820e+06	8.909760e+06	8.921400e+06	8.910420e+06	8.920760e+06	8.899920e+06	8.890720e+06	8.903560e+06	8.913280e+06	8.926520e+06	8.909000e+06	8.897680e+06	8.908580e+06	8.906700e+06	8.914640e+06	8.897840e+06	8.921800e+06	8.907680e+06	8.915120e+06	8.908820e+06	8.912360e+06	8.901760e+06	8.902200e+06	8.907600e+06	8.908640e+06	8.916120e+06	8.903740e+06	8.904740e+06	8.904240e+06	8.923320e+06	8.919360e+06	8.921000e+06	8.927800e+06	8.912600e+06	8.893960e+06	8.902540e+06	8.898600e+06	8.901720e+06	8.899400e+06	8.905900e+06	8.883760e+06	8.899060e+06	8.899620e+06	8.900960e+06	8.893240e+06	8.884620e+06	8.865900e+06	8.812920e+06	8.782220e+06	8.775100e+06	8.793100e+06	8.810280e+06	8.793000e+06	8.763020e+06	8.792720e+06	8.832860e+06	8.864240e+06	8.872280e+06	8.879240e+06	8.897540e+06	8.902540e+06	8.895000e+06	8.895500e+06	8.897820e+06	8.879060e+06	8.893560e+06	8.904480e+06	8.894220e+06	8.882380e+06	8.906500e+06	8.901100e+06	8.898840e+06	8.896040e+06	8.907740e+06	8.892700e+06	8.894220e+06	8.893680e+06	8.913180e+06	8.905380e+06	8.910960e+06	8.905420e+06	8.902820e+06	8.910260e+06	8.920840e+06	8.921180e+06	8.927280e+06	8.930960e+06	8.934880e+06	8.916140e+06	8.905400e+06	8.906800e+06	8.915260e+06	8.910260e+06	8.927620e+06	8.919720e+06	8.896860e+06	8.940660e+06	8.912140e+06	8.925860e+06	8.928380e+06	8.915420e+06	8.899960e+06	8.908940e+06	8.923140e+06	8.912280e+06	8.918440e+06	8.918560e+06	8.916160e+06	8.920200e+06	8.904460e+06	8.916100e+06	8.914040e+06
8.914460e+06	8.904340e+06	8.893920e+06	8.919640e+06	8.910660e+06	8.903680e+06	8.906680e+06	8.903760e+06	8.906180e+06	8.908420e+06	8.893020e+06	8.913700e+06	8.893100e+06	8.920580e+06	8.911520e+06	8.917820e+06	8.916040e+06	8.923720e+06	8.913140e+06	8.926840e+06	8.926740e+06	8.912080e+06	8.928720e+06	8.894720e+06	8.943900e+06	8.914540e+06	8.924320e+06	8.932880e+06	8.913180e+06	8.909380e+06	8.920900e+06	8.925300e+06	8.920420e+06	8.901400e+06	8.913320e+06	8.907300e+06	8.899940e+06	8.926540e+06	8.902220e+06	8.905020e+06	8.889280e+06	8.901440e+06	8.890020e+06	8.889620e+06	8.902620e+06	8.905760e+06	8.905380e+06	8.918000e+06	8.901860e+06	8.907380e+06	8.911620e+06	8.900160e+06	8.900840e+06	8.895560e+06	8.873660e+06	8.877380e+06	8.806820e+06	8.790400e+06	8.798800e+06	8.790400e+06	8.816700e+06	8.812720e+06	8.789620e+06	8.816640e+06	8.820360e+06	8.868840e+06	8.906640e+06	8.902900e+06	8.878920e+06	8.913340e+06	8.888640e+06	8.911760e+06	8.908520e+06	8.897900e+06	8.899840e+06	8.907120e+06	8.905820e+06	8.911480e+06	8.884860e+06	8.910780e+06	8.907760e+06	8.917820e+06	8.896700e+06	8.916340e+06	8.895700e+06	8.927120e+06	8.909060e+06	8.923760e+06	8.919200e+06	8.918820e+06	8.927760e+06	8.919180e+06	8.898500e+06	8.900840e+06	8.912320e+06	8.919840e+06	8.919700e+06	8.909200e+06	8.925520e+06	8.926500e+06	8.893560e+06	8.918980e+06	8.921560e+06	8.902660e+06	8.923820e+06	8.921340e+06	8.915440e+06	8.906680e+06	8.921740e+06	8.933120e+06	8.891880e+06	8.921720e+06	8.900460e+06	8.919540e+06	8.901800e+06	8.923480e+06	8.925840e+06	8.905040e+06	8.901580e+06	8.894480e+06	8.916980e+06
8.919360e+06	8.922000e+06	8.928580e+06	8.934840e+06	8.934560e+06	8.945800e+06	8.925220e+06	8.920740e+06	8.924680e+06	8.939740e+06	8.940000e+06	8.933180e+06	8.909360e+06	8.905000e+06	8.906600e+06	8.935320e+06	8.921940e+06	8.925260e+06	8.927900e+06	8.914660e+06	8.929100e+06	8.926580e+06	8.943680e+06	8.918520e+06	8.918060e+06	8.918440e+06	8.932240e+06	8.931520e+06	8.919600e+06	8.935760e+06	8.908960e+06	8.924480e+06	8.931740e+06	8.925420e+06	8.920160e+06	8.925500e+06	8.916560e+06	8.917680e+06	8.946980e+06	8.918060e+06	8.927240e+06	8.918520e+06	8.919480e+06	8.921480e+06	8.940300e+06	8.925700e+06	8.913620e+06	8.918560e+06	8.914540e+06	8.935220e+06	8.915760e+06	8.913080e+06	8.908400e+06	8.917440e+06	8.904860e+06	8.890200e+06	8.826440e+06	8.803280e+06	8.775320e+06	8.811900e+06	8.819380e+06	8.804740e+06	8.779300e+06	8.816640e+06	8.806180e+06	8.885780e+06	8.884220e+06	8.905320e+06	8.910020e+06	8.913800e+06	8.922480e+06	8.886080e+06	8.908520e+06	8.922220e+06	8.929100e+06	8.907280e+06	8.904880e+06	8.911580e+06	8.898900e+06	8.911920e+06	8.912580e+06	8.905900e+06	8.909660e+06	8.923780e+06	8.922260e+06	8.904100e+06	8.910740e+06	8.916780e+06	8.921740e+06	8.915460e+06	8.919280e+06	8.922960e+06	8.912500e+06	8.923060e+06	8.906740e+06	8.935420e+06	8.913000e+06	8.924580e+06	8.910520e+06	8.925400e+06	8.944980e+06	8.930000e+06	8.920460e+06	8.926100e+06	8.909760e+06	8.915500e+06	8.912540e+06	8.928120e+06	8.921000e+06	8.926980e+06	8.943620e+06	8.923780e+06	8.917900e+06	8.916000e+06	8.922140e+06	8.921280e+06	8.917000e+06	8.901820e+06	8.917620e+06	8.902880e+06	8.901180e+06
8.921600e+06	8.913260e+06	8.918760e+06	8.926180e+06	8.932700e+06	8.913440e+06	8.913980e+06	8.920220e+06	8.929820e+06	8.918300e+06	8.919380e+06	8.926040e+06	8.935700e+06	8.936240e+06	8.942720e+06	8.935180e+06	8.937340e+06	8.950020e+06	8.931900e+06	8.938860e+06	8.942980e+06	8.956420e+06	8.935760e+06	8.929500e+06	8.930180e+06	8.931260e+06	8.950040e+06	8.921240e+06	8.929380e+06	8.940940e+06	8.935800e+06	8.929640e+06	8.904380e+06	8.927160e+06	8.922280e+06	8.920020e+06	8.938500e+06	8.942500e+06	8.939080e+06	8.913500e+06	8.921360e+06	8.921320e+06	8.935480e+06	8.919020e+06	8.941620e+06	8.938260e+06	8.928700e+06	8.944580e+06	8.926400e+06	8.920120e+06	8.906660e+06	8.921000e+06	8.926420e+06	8.914740e+06	8.913900e+06	8.878220e+06	8.840580e+06	8.811040e+06	8.796480e+06	8.821720e+06	8.816260e+06	8.812180e+06	8.771740e+06	8.815060e+06	8.844800e+06	8.888280e+06	8.929940e+06	8.899160e+06	8.918340e+06	8.924680e+06	8.918600e+06	8.911940e+06	8.910660e+06	8.908280e+06	8.922280e+06	8.910960e+06	8.916580e+06	8.930120e+06	8.921860e+06	8.929740e+06	8.919640e+06	8.930300e+06	8.936440e+06	8.917060e+06	8.940080e+06	8.918360e+06	8.920800e+06	8.930820e+06	8.927480e+06	8.920640e+06	8.919560e+06	8.922000e+06	8.923040e+06	8.920840e+06	8.922220e+06	8.915160e+06	8.920960e+06	8.921440e+06	8.917340e+06	8.916280e+06	8.943060e+06	8.930180e+06	8.935580e+06	8.935760e+06	8.931380e+06	8.926200e+06	8.936940e+06	8.905920e+06	8.944920e+06	8.919660e+06	8.921400e+06	8.915720e+06	8.919440e+06	8.913260e+06	8.917740e+06	8.918140e+06	8.918140e+06	8.914940e+06	8.919400e+06	8.904120e+06	8.923780e+06
8.917180e+06	8.922460e+06	8.913080e+06	8.913240e+06	8.939620e+06	8.909420e+06	8.914040e+06	8.915100e+06	8.919320e+06	8.919300e+06	8.938920e+06	8.910500e+06	8.924400e+06	8.902020e+06	8.903360e+06	8.909580e+06	8.921320e+06	8.924260e+06	8.914060e+06	8.911120e+06	8.914740e+06	8.920620e+06	8.903820e+06	8.893960e+06	8.911900e+06	8.920880e+06	8.911480e+06	8.924760e+06	8.917640e+06	8.915120e+06	8.903160e+06	8.912620e+06	8.931620e+06	8.914940e+06	8.916380e+06	8.905360e+06	8.909240e+06	8.917580e+06	8.906480e+06	8.902500e+06	8.918480e+06	8.907360e+06	8.908340e+06	8.912840e+06	8.906380e+06	8.907820e+06	8.924840e+06	8.931360e+06	8.927700e+06	8.911980e+06	8.907820e+06	8.919860e+06	8.913420e+06	8.908700e+06	8.901340e+06	8.887040e+06	8.818140e+06	8.810060e+06	8.792540e+06	8.809560e+06	8.803440e+06	8.809960e+06	8.784000e+06	8.806520e+06	8.835500e+06	8.877840e+06	8.902280e+06	8.926080e+06	8.908900e+06	8.926260e+06	8.915640e+06	8.907800e+06	8.918800e+06	8.920940e+06	8.922740e+06	8.912460e+06	8.927520e+06	8.916500e+06	8.918680e+06	8.911420e+06	8.923100e+06	8.926460e+06	8.914300e+06	8.911760e+06	8.924060e+06	8.913240e+06	8.923540e+06	8.929960e+06	8.919280e+06	8.918540e+06	8.921480e+06	8.918580e+06	8.898740e+06	8.925540e+06	8.917080e+06	8.923020e+06	8.925620e+06	8.906280e+06	8.907520e+06	8.925980e+06	8.925220e+06	8.918840e+06	8.927140e+06	8.919980e+06	8.922720e+06	8.932700e+06	8.922760e+06	8.924840e+06	8.921180e+06	8.909980e+06	8.929120e+06	8.930500e+06	8.943720e+06	8.917260e+06	8.906900e+06	8.897300e+06	8.933440e+06	8.923440e+06	8.934700e+06	8.921340e+06	8.919980e+06
8.887440e+06	8.907260e+06	8.903540e+06	8.908820e+06	8.898840e+06	8.900500e+06	8.916480e+06	8.904700e+06	8.897320e+06	8.909560e+06	8.903560e+06	8.907620e+06	8.914380e+06	8.908420e+06	8.915900e+06	8.902220e+06	8.910220e+06	8.920180e+06	8.911360e+06	8.904880e+06	8.903660e+06	8.897300e+06	8.903040e+06	8.913220e+06	8.910480e+06	8.919780e+06	8.908020e+06	8.905960e+06	8.919240e+06	8.900260e+06	8.917140e+06	8.916620e+06	8.894800e+06	8.912220e+06	8.907320e+06	8.919160e+06	8.928540e+06	8.922800e+06	8.931440e+06	8.913520e+06	8.910500e+06	8.905280e+06	8.906320e+06	8.913160e+06	8.904480e+06	8.931200e+06	8.932360e+06	8.925180e+06	8.915340e+06	8.925520e+06	8.918820e+06	8.911140e+06	8.910780e+06	8.905680e+06	8.883620e+06	8.892940e+06	8.818300e+06	8.815740e+06	8.783740e+06	8.807680e+06	8.816340e+06	8.798040e+06	8.795120e+06	8.826040e+06	8.836200e+06	8.906600e+06	8.909260e+06	8.916540e+06	8.925740e+06	8.930520e+06	8.904900e+06	8.916720e+06	8.927280e+06	8.931640e+06	8.935340e+06	8.926560e+06	8.921540e+06	8.922000e+06	8.896160e+06	8.914580e+06	8.905400e+06	8.907280e+06	8.903680e+06	8.921080e+06	8.918300e+06	8.921540e+06	8.926020e+06	8.899960e+06	8.922240e+06	8.935860e+06	8.920280e+06	8.933560e+06	8.921600e+06	8.900120e+06	8.904740e+06	8.927020e+06	8.919840e+06	8.909360e+06	8.914900e+06	8.921040e+06	8.916840e+06	8.918640e+06	8.912980e+06	8.926080e+06	8.919660e+06	8.927200e+06	8.908680e+06	8.911600e+06	8.918960e+06	8.911300e+06	8.914060e+06	8.919900e+06	8.907180e+06	8.918100e+06	8.932740e+06	8.915520e+06	8.934180e+06	8.928780e+06	8.902180e+06	8.945480e+06	8.932300e+06
8.915520e+06	8.898360e+06	8.906080e+06	8.918220e+06	8.894100e+06	8.904200e+06	8.892100e+06	8.894900e+06	8.902440e+06	8.903500e+06	8.914060e+06	8.911780e+06	8.905000e+06	8.901700e+06	8.886600e+06	8.914720e+06	8.911400e+06	8.895700e+06	8.931020e+06	8.904340e+06	8.903900e+06	8.909860e+06	8.912820e+06	8.903000e+06	8.906460e+06	8.880000e+06	8.906380e+06	8.885180e+06	8.874420e+06	8.883980e+06	8.874060e+06	8.883780e+06	8.875140e+06	8.887500e+06	8.905080e+06	8.906560e+06	8.901060e+06	8.912660e+06	8.914920e+06	8.903240e+06	8.907160e+06	8.907680e+06	8.910400e+06	8.912740e+06	8.917520e+06	8.910700e+06	8.897440e+06	8.911540e+06	8.906060e+06	8.914980e+06	8.939720e+06	8.902640e+06	8.913420e+06	8.911000e+06	8.892260e+06	8.900900e+06	8.839680e+06	8.820760e+06	8.790060e+06	8.803780e+06	8.829620e+06	8.807140e+06	8.810380e+06	8.830500e+06	8.851580e+06	8.873860e+06	8.917360e+06	8.920660e+06	8.922580e+06	8.937520e+06	8.927720e+06	8.927980e+06	8.917720e+06	8.927620e+06	8.924600e+06	8.921760e+06	8.912100e+06	8.919760e+06	8.935380e+06	8.911540e+06	8.924920e+06	8.915220e+06	8.919640e+06	8.904080e+06	8.931040e+06	8.915520e+06	8.907140e+06	8.923700e+06	8.933440e+06	8.923260e+06	8.923200e+06	8.925220e+06	8.922120e+06	8.904640e+06	8.897360e+06	8.915620e+06	8.892180e+06	8.908280e+06	8.905740e+06	8.898340e+06	8.898820e+06	8.883720e+06	8.894120e+06	8.911400e+06	8.897600e+06	8.920360e+06	8.919520e+06	8.912200e+06	8.909080e+06	8.897040e+06	8.902780e+06	8.908080e+06	8.899360e+06	8.902260e+06	8.895260e+06	8.903720e+06	8.919900e+06	8.900740e+06	8.910200e+06	8.913640e+06	8.896960e+06
8.905800e+06	8.912400e+06	8.913360e+06	8.910980e+06	8.920980e+06	8.914620e+06	8.921180e+06	8.916880e+06	8.926100e+06	8.902560e+06	8.925340e+06	8.925260e+06	8.922100e+06	8.925220e+06	8.933680e+06	8.917360e+06	8.914780e+06	8.895080e+06	8.913220e+06	8.916880e+06	8.909660e+06	8.916900e+06	8.909600e+06	8.923320e+06	8.903380e+06	8.910620e+06	8.922660e+06	8.927880e+06	8.925000e+06	8.905720e+06	8.923820e+06	8.924160e+06	8.906160e+06	8.921540e+06	8.924860e+06	8.922660e+06	8.926920e+06	8.930560e+06	8.911060e+06	8.909420e+06	8.921640e+06	8.907220e+06	8.923740e+06	8.907060e+06	8.910460e+06	8.926200e+06	8.916440e+06	8.916180e+06	8.945060e+06	8.913420e+06	8.915380e+06	8.924340e+06	8.915960e+06	8.911420e+06	8.917520e+06	8.885940e+06	8.834280e+06	8.814620e+06	8.782460e+06	8.825300e+06	8.832420e+06	8.832160e+06	8.791040e+06	8.826120e+06	8.839120e+06	8.892900e+06	8.918600e+06	8.915120e+06	8.929760e+06	8.915060e+06	8.916380e+06	8.910220e+06	8.921220e+06	8.907620e+06	8.932020e+06	8.911640e+06	8.894220e+06	8.927320e+06	8.906940e+06	8.914800e+06	8.904420e+06	8.904060e+06	8.904760e+06	8.938940e+06	8.903440e+06	8.908940e+06	8.917240e+06	8.918200e+06	8.916380e+06	8.891880e+06	8.908580e+06	8.905800e+06	8.902340e+06	8.900660e+06	8.916080e+06	8.914480e+06	8.903900e+06	8.927180e+06	8.904640e+06	8.932120e+06	8.926960e+06	8.913480e+06	8.924480e+06	8.911280e+06	8.905120e+06	8.900300e+06	8.897700e+06	8.916000e+06	8.898860e+06	8.901140e+06	8.912460e+06	8.918940e+06	8.897080e+06	8.920340e+06	8.906400e+06	8.897080e+06	8.914860e+06	8.894560e+06	8.917840e+06	8.902600e+06	8.906600e+06
8.916140e+06	8.911140e+06	8.910020e+06	8.918500e+06	8.932500e+06	8.925600e+06	8.907900e+06	8.899280e+06	8.926520e+06	8.903740e+06	8.909860e+06	8.908360e+06	8.932920e+06	8.934380e+06	8.902320e+06	8.913180e+06	8.915880e+06	8.928200e+06	8.897620e+06	8.905600e+06	8.922500e+06	8.920480e+06	8.917480e+06	8.919240e+06	8.926900e+06	8.907500e+06	8.917620e+06	8.907980e+06	8.931460e+06	8.921660e+06	8.914600e+06	8.907800e+06	8.911500e+06	8.924260e+06	8.916120e+06	8.924000e+06	8.921300e+06	8.910800e+06	8.917060e+06	8.909680e+06	8.928300e+06	8.942300e+06	8.921040e+06	8.892800e+06	8.914780e+06	8.898940e+06	8.901420e+06	8.927720e+06	8.906980e+06	8.914120e+06	8.889960e+06	8.909240e+06	8.904080e+06	8.916660e+06	8.905760e+06	8.866120e+06	8.825900e+06	8.786040e+06	8.777640e+06	8.801800e+06	8.805040e+06	8.814560e+06	8.767800e+06	8.806920e+06	8.811400e+06	8.869540e+06	8.902580e+06	8.902520e+06	8.900280e+06	8.917560e+06	8.895760e+06	8.914540e+06	8.912040e+06	8.898820e+06	8.903060e+06	8.919840e+06	8.916000e+06	8.911120e+06	8.892560e+06	8.898920e+06	8.902860e+06	8.909580e+06	8.918140e+06	8.913660e+06	8.917780e+06	8.897940e+06	8.910880e+06	8.921060e+06	8.903180e+06	8.914500e+06	8.919780e+06	8.908260e+06	8.911240e+06	8.910680e+06	8.912180e+06	8.910840e+06	8.904440e+06	8.904480e+06	8.920440e+06	8.917560e+06	8.902160e+06	8.905500e+06	8.931360e+06	8.912520e+06	8.905780e+06	8.906140e+06	8.913420e+06	8.924660e+06	8.904040e+06	8.927720e+06	8.918000e+06	8.916760e+06	8.921880e+06	8.912260e+06	8.929220e+06	8.914660e+06	8.898860e+06	8.922560e+06	8.926820e+06	8.913320e+06	8.933100e+06
8.896980e+06	8.889060e+06	8.896960e+06	8.905800e+06	8.896120e+06	8.906320e+06	8.907800e+06	8.908400e+06	8.917800e+06	8.902860e+06	8.886980e+06	8.903900e+06	8.920320e+06	8.921240e+06	8.907980e+06	8.901480e+06	8.892800e+06	8.909300e+06	8.899340e+06	8.897360e+06	8.913080e+06	8.897900e+06	8.913520e+06	8.920100e+06	8.891000e+06	8.902340e+06	8.905160e+06	8.916740e+06	8.904660e+06	8.893000e+06	8.915620e+06	8.894440e+06	8.914080e+06	8.908100e+06	8.905220e+06	8.916700e+06	8.913580e+06	8.909340e+06	8.921380e+06	8.912460e+06	8.912300e+06	8.889840e+06	8.914100e+06	8.923140e+06	8.914780e+06	8.928120e+06	8.909320e+06	8.922620e+06	8.919300e+06	8.907600e+06	8.898180e+06	8.926360e+06	8.914500e+06	8.902360e+06	8.897420e+06	8.884100e+06	8.814640e+06	8.809220e+06	8.791940e+06	8.802180e+06	8.827000e+06	8.811000e+06	8.791000e+06	8.807180e+06	8.807200e+06	8.845580e+06	8.855640e+06	8.886820e+06	8.893160e+06	8.876480e+06	8.902980e+06	8.889060e+06	8.892060e+06	8.895680e+06	8.884700e+06	8.872340e+06	8.879840e+06	8.893800e+06	8.888680e+06	8.891480e+06	8.877380e+06	8.896240e+06	8.905440e+06	8.893980e+06	8.911180e+06	8.899960e+06	8.903040e+06	8.890060e+06	8.912140e+06	8.898700e+06	8.899100e+06	8.887640e+06	8.906100e+06	8.904100e+06	8.894980e+06	8.898180e+06	8.903400e+06	8.900640e+06	8.908680e+06	8.902960e+06	8.904600e+06	8.913420e+06	8.909160e+06	8.909780e+06	8.896880e+06	8.907660e+06	8.926480e+06	8.902700e+06	8.898680e+06	8.917660e+06	8.907560e+06	8.917540e+06	8.918860e+06	8.913400e+06	8.914140e+06	8.897100e+06	8.924580e+06	8.924600e+06	8.906380e+06	8.905300e+06	8.893320e+06
8.888080e+06	8.899220e+06	8.903920e+06	8.911920e+06	8.881940e+06	8.920080e+06	8.898600e+06	8.907600e+06	8.911880e+06	8.910660e+06	8.903320e+06	8.891540e+06	8.909100e+06	8.909420e+06	8.915600e+06	8.910380e+06	8.900880e+06	8.916060e+06	8.910300e+06	8.900920e+06	8.904160e+06	8.916640e+06	8.909340e+06	8.900760e+06	8.901480e+06	8.911320e+06	8.912620e+06	8.901920e+06	8.887360e+06	8.892600e+06	8.891340e+06	8.909280e+06	8.914100e+06	8.907200e+06	8.894140e+06	8.906340e+06	8.906040e+06	8.900300e+06	8.896820e+06	8.903380e+06	8.905540e+06	8.894480e+06	8.903780e+06	8.887160e+06	8.913360e+06	8.883960e+06	8.915120e+06	8.910120e+06	8.916060e+06	8.907560e+06	8.918520e+06	8.891320e+06	8.906580e+06	8.906200e+06	8.878840e+06	8.872220e+06	8.803740e+06	8.783860e+06	8.760520e+06	8.771160e+06	8.808520e+06	8.796800e+06	8.770200e+06	8.780000e+06	8.806320e+06	8.857780e+06	8.889960e+06	8.890140e+06	8.909280e+06	8.911500e+06	8.898480e+06	8.902820e+06	8.905060e+06	8.912260e+06	8.896600e+06	8.921660e+06	8.913520e+06	8.913680e+06	8.919520e+06	8.916620e+06	8.917540e+06	8.934000e+06	8.928600e+06	8.933600e+06	8.929080e+06	8.923300e+06	8.931380e+06	8.929580e+06	8.928300e+06	8.928860e+06	8.923080e+06	8.917240e+06	8.899600e+06	8.918560e+06	8.913940e+06	8.907400e+06	8.915620e+06	8.907380e+06	8.911400e+06	8.927760e+06	8.913900e+06	8.909500e+06	8.897720e+06	8.915800e+06	8.912960e+06	8.912660e+06	8.899720e+06	8.912460e+06	8.897300e+06	8.892960e+06	8.893280e+06	8.889280e+06	8.888280e+06	8.902780e+06	8.901920e+06	8.914100e+06	8.904960e+06	8.877620e+06	8.895500e+06	8.901580e+06	8.910600e+06
8.917300e+06	8.909120e+06	8.918760e+06	8.926840e+06	8.923360e+06	8.908980e+06	8.931840e+06	8.926680e+06	8.908460e+06	8.928900e+06	8.908600e+06	8.913100e+06	8.918140e+06	8.908420e+06	8.905480e+06	8.917900e+06	8.902660e+06	8.893360e+06	8.907600e+06	8.908820e+06	8.906400e+06	8.906220e+06	8.906580e+06	8.897600e+06	8.916020e+06	8.902860e+06	8.902780e+06	8.901280e+06	8.913660e+06	8.908880e+06	8.904020e+06	8.894060e+06	8.907480e+06	8.905920e+06	8.916200e+06	8.903120e+06	8.902560e+06	8.893160e+06	8.901680e+06	8.899500e+06	8.902860e+06	8.914340e+06	8.902920e+06	8.914680e+06	8.901320e+06	8.894620e+06	8.882900e+06	8.914480e+06	8.904760e+06	8.912460e+06	8.900200e+06	8.924820e+06	8.903140e+06	8.891360e+06	8.894220e+06	8.872860e+06	8.830600e+06	8.800800e+06	8.777180e+06	8.800800e+06	8.800880e+06	8.797320e+06	8.771780e+06	8.798860e+06	8.832120e+06	8.872760e+06	8.893240e+06	8.899400e+06	8.891040e+06	8.893000e+06	8.905920e+06	8.896660e+06	8.900060e+06	8.901940e+06	8.900020e+06	8.900060e+06	8.900300e+06	8.900400e+06	8.903060e+06	8.881560e+06	8.873680e+06	8.898000e+06	8.892000e+06	8.902160e+06	8.900480e+06	8.887860e+06	8.888200e+06	8.890480e+06	8.891500e+06	8.879140e+06	8.906960e+06	8.917020e+06	8.891340e+06	8.900460e+06	8.892580e+06	8.886940e+06	8.894420e+06	8.899480e+06	8.890500e+06	8.887040e+06	8.910660e+06	8.890580e+06	8.893400e+06	8.901420e+06	8.886260e+06	8.918520e+06	8.906740e+06	8.920420e+06	8.901720e+06	8.906280e+06	8.893960e+06	8.887800e+06	8.906580e+06	8.890460e+06	8.911140e+06	8.908840e+06	8.895820e+06	8.907000e+06	8.902360e+06	8.912380e+06	8.909200e+06
8.922560e+06	8.926260e+06	8.915820e+06	8.930580e+06	8.934080e+06	8.924380e+06	8.926480e+06	8.922200e+06	8.909380e+06	8.921420e+06	8.936400e+06	8.923200e+06	8.916840e+06	8.907540e+06	8.903340e+06	8.918460e+06	8.932620e+06	8.915160e+06	8.930140e+06	8.924420e+06	8.920280e+06	8.920720e+06	8.920600e+06	8.934720e+06	8.957420e+06	8.928960e+06	8.926580e+06	8.934240e+06	8.934560e+06	8.937640e+06	8.930100e+06	8.935840e+06	8.927920e+06	8.920940e+06	8.919760e+06	8.925000e+06	8.919280e+06	8.934760e+06	8.938880e+06	8.931140e+06	8.928700e+06	8.929920e+06	8.924220e+06	8.917380e+06	8.938180e+06	8.920360e+06	8.923000e+06	8.933240e+06	8.916840e+06	8.925080e+06	8.924380e+06	8.938900e+06	8.929500e+06	8.920880e+06	8.915060e+06	8.888060e+06	8.833060e+06	8.809120e+06	8.794740e+06	8.811500e+06	8.825980e+06	8.801060e+06	8.800720e+06	8.825140e+06	8.854980e+06	8.888980e+06	8.907460e+06	8.922380e+06	8.923200e+06	8.921660e+06	8.922480e+06	8.923940e+06	8.920680e+06	8.922740e+06	8.922240e+06	8.918940e+06	8.907700e+06	8.906100e+06	8.921440e+06	8.914780e+06	8.909820e+06	8.903520e+06	8.922420e+06	8.930380e+06	8.890960e+06	8.907560e+06	8.913040e+06	8.903840e+06	8.912560e+06	8.928720e+06	8.927680e+06	8.907300e+06	8.912860e+06	8.917440e+06	8.917380e+06	8.918560e+06	8.918780e+06	8.890820e+06	8.909240e+06	8.912240e+06	8.904180e+06	8.911760e+06	8.903100e+06	8.902080e+06	8.904820e+06	8.908080e+06	8.918960e+06	8.922360e+06	8.911400e+06	8.939580e+06	8.911480e+06	8.921440e+06	8.888460e+06	8.905240e+06	8.912320e+06	8.918000e+06	8.919500e+06	8.924100e+06	8.901260e+06	8.917060e+06	8.920460e+06
8.905000e+06	8.919400e+06	8.914320e+06	8.914360e+06	8.924260e+06	8.933700e+06	8.932600e+06	8.932160e+06	8.943200e+06	8.933820e+06	8.930580e+06	8.932520e+06	8.943940e+06	8.935100e+06	8.931320e+06	8.940160e+06	8.934540e+06	8.955320e+06	8.925020e+06	8.930300e+06	8.927440e+06	8.925700e+06	8.935920e+06	8.926700e+06	8.922340e+06	8.934240e+06	8.935120e+06	8.938960e+06	8.930900e+06	8.934720e+06	8.939680e+06	8.920360e+06	8.939760e+06	8.916600e+06	8.930140e+06	8.937200e+06	8.927340e+06	8.931340e+06	8.924520e+06	8.941900e+06	8.936800e+06	8.938320e+06	8.915560e+06	8.914300e+06	8.931920e+06	8.924380e+06	8.913320e+06	8.918960e+06	8.923860e+06	8.921360e+06	8.923920e+06	8.909640e+06	8.917360e+06	8.907540e+06	8.898540e+06	8.871440e+06	8.827740e+06	8.823740e+06	8.783240e+06	8.810460e+06	8.831180e+06	8.793760e+06	8.786620e+06	8.822680e+06	8.831500e+06	8.885040e+06	8.916220e+06	8.936960e+06	8.913560e+06	8.915740e+06	8.935400e+06	8.916700e+06	8.928300e+06	8.925620e+06	8.922200e+06	8.925680e+06	8.937920e+06	8.913740e+06	8.938700e+06	8.925280e+06	8.932320e+06	8.935400e+06	8.930200e+06	8.924100e+06	8.929160e+06	8.932340e+06	8.924140e+06	8.935480e+06	8.923200e+06	8.927320e+06	8.933140e+06	8.922400e+06	8.920000e+06	8.925520e+06	8.928720e+06	8.932440e+06	8.926860e+06	8.931260e+06	8.922500e+06	8.923640e+06	8.929720e+06	8.927820e+06	8.924260e+06	8.924420e+06	8.934680e+06	8.935460e+06	8.925200e+06	8.935920e+06	8.933760e+06	8.926800e+06	8.930580e+06	8.937360e+06	8.918120e+06	8.939880e+06	8.940940e+06	8.938360e+06	8.951000e+06	8.947060e+06	8.945820e+06	8.942380e+06	8.938460e+06
8.892140e+06	8.902980e+06	8.881340e+06	8.889560e+06	8.888480e+06	8.895640e+06	8.883900e+06	8.888660e+06	8.884800e+06	8.880680e+06	8.881940e+06	8.894960e+06	8.886100e+06	8.880680e+06	8.886600e+06	8.877760e+06	8.881880e+06	8.879320e+06	8.890920e+06	8.883080e+06	8.866260e+06	8.881860e+06	8.878860e+06	8.889960e+06	8.877780e+06	8.869720e+06	8.895840e+06	8.880600e+06	8.896660e+06	8.899920e+06	8.886280e+06	8.894260e+06	8.897960e+06	8.895500e+06	8.892420e+06	8.899740e+06	8.889940e+06	8.894860e+06	8.888480e+06	8.897940e+06	8.889980e+06	8.880940e+06	8.894180e+06	8.889780e+06	8.883740e+06	8.880900e+06	8.904580e+06	8.917260e+06	8.910740e+06	8.897020e+06	8.910300e+06	8.890420e+06	8.903020e+06	8.883300e+06	8.887640e+06	8.864920e+06	8.793440e+06	8.782120e+06	8.771540e+06	8.791900e+06	8.813180e+06	8.787000e+06	8.781840e+06	8.806420e+06	8.808280e+06	8.887460e+06	8.882140e+06	8.898840e+06	8.906560e+06	8.897660e+06	8.901240e+06	8.903300e+06	8.911740e+06	8.893160e+06	8.916480e+06	8.917880e+06	8.908340e+06	8.910960e+06	8.919080e+06	8.923960e+06	8.933600e+06	8.929740e+06	8.922000e+06	8.908360e+06	8.917100e+06	8.911780e+06	8.924180e+06	8.925480e+06	8.916800e+06	8.913840e+06	8.920560e+06	8.910020e+06	8.916880e+06	8.894060e+06	8.910220e+06	8.905980e+06	8.925040e+06	8.907680e+06	8.919380e+06	8.920200e+06	8.920300e+06	8.924060e+06	8.895700e+06	8.914040e+06	8.907420e+06	8.923440e+06	8.918060e+06	8.925740e+06	8.911380e+06	8.913820e+06	8.930600e+06	8.911860e+06	8.938940e+06	8.897360e+06	8.924700e+06	8.910140e+06	8.910860e+06	8.932380e+06	8.930200e+06	8.923360e+06	8.908040e+06
8.858720e+06	8.876160e+06	8.888540e+06	8.877500e+06	8.871820e+06	8.875240e+06	8.878620e+06	8.874940e+06	8.878960e+06	8.858440e+06	8.868680e+06	8.877860e+06	8.900480e+06	8.882780e+06	8.878380e+06	8.888540e+06	8.882800e+06	8.884000e+06	8.889060e+06	8.891700e+06	8.880820e+06	8.880860e+06	8.910160e+06	8.885500e+06	8.891800e+06	8.893980e+06	8.908300e+06	8.910780e+06	8.906840e+06	8.898700e+06	8.910380e+06	8.912760e+06	8.891460e+06	8.921740e+06	8.918120e+06	8.903080e+06	8.903020e+06	8.911480e+06	8.910040e+06	8.914380e+06	8.908560e+06	8.917220e+06	8.924380e+06	8.928060e+06	8.921380e+06	8.892160e+06	8.917320e+06	8.899820e+06	8.912660e+06	8.904060e+06	8.910000e+06	8.904860e+06	8.893740e+06	8.888540e+06	8.884800e+06	8.862960e+06	8.788260e+06	8.778700e+06	8.772300e+06	8.781120e+06	8.794720e+06	8.778200e+06	8.768380e+06	8.783220e+06	8.820280e+06	8.853820e+06	8.876660e+06	8.880340e+06	8.881820e+06	8.887520e+06	8.895160e+06	8.874440e+06	8.885680e+06	8.892660e+06	8.890860e+06	8.892880e+06	8.899660e+06	8.884520e+06	8.903140e+06	8.868840e+06	8.876780e+06	8.876740e+06	8.880360e+06	8.882520e+06	8.876520e+06	8.885780e+06	8.876960e+06	8.877580e+06	8.886120e+06	8.882940e+06	8.865060e+06	8.878320e+06	8.877140e+06	8.894680e+06	8.858660e+06	8.877900e+06	8.875480e+06	8.861420e+06	8.870200e+06	8.885740e+06	8.894680e+06	8.877960e+06	8.876240e+06	8.891520e+06	8.886740e+06	8.892320e+06	8.874640e+06	8.862160e+06	8.881520e+06	8.897780e+06	8.873040e+06	8.890080e+06	8.888840e+06	8.888400e+06	8.897900e+06	8.898860e+06	8.906160e+06	8.876280e+06	8.896700e+06	8.889960e+06	8.903900e+06
8.903740e+06	8.900040e+06	8.900840e+06	8.896140e+06	8.902540e+06	8.912060e+06	8.901440e+06	8.897240e+06	8.892940e+06	8.904240e+06	8.887320e+06	8.891460e+06	8.902800e+06	8.885700e+06	8.897520e+06	8.894040e+06	8.901320e+06	8.889820e+06	8.892620e+06	8.895860e+06	8.867780e+06	8.877080e+06	8.884800e+06	8.894340e+06	8.907220e+06	8.876500e+06	8.894400e+06	8.896680e+06	8.886100e+06	8.877340e+06	8.877280e+06	8.883620e+06	8.884820e+06	8.870540e+06	8.880420e+06	8.895980e+06	8.888740e+06	8.883200e+06	8.882840e+06	8.881540e+06	8.895440e+06	8.894240e+06	8.875400e+06	8.871940e+06	8.883580e+06	8.884960e+06	8.871520e+06	8.875980e+06	8.888440e+06	8.857400e+06	8.881540e+06	8.872040e+06	8.881860e+06	8.861640e+06	8.867420e+06	8.837260e+06	8.797860e+06	8.761940e+06	8.752060e+06	8.764980e+06	8.778200e+06	8.758100e+06	8.757720e+06	8.773000e+06	8.787280e+06	8.831540e+06	8.845480e+06	8.865680e+06	8.882220e+06	8.862840e+06	8.873660e+06	8.870460e+06	8.882260e+06	8.888420e+06	8.889400e+06	8.879940e+06	8.882820e+06	8.865640e+06	8.870080e+06	8.888680e+06	8.890700e+06	8.895480e+06	8.882980e+06	8.876560e+06	8.902560e+06	8.879240e+06	8.870880e+06	8.877980e+06	8.877860e+06	8.879560e+06	8.882720e+06	8.884640e+06	8.872720e+06	8.879480e+06	8.866620e+06	8.870740e+06	8.870000e+06	8.868280e+06	8.869980e+06	8.861700e+06	8.868460e+06	8.873740e+06	8.871660e+06	8.888680e+06	8.880220e+06	8.878800e+06	8.870040e+06	8.885940e+06	8.869060e+06	8.875160e+06	8.877760e+06	8.884880e+06	8.876760e+06	8.881380e+06	8.882100e+06	8.880160e+06	8.874380e+06	8.874040e+06	8.884040e+06	8.883840e+06	8.876780e+06
8.878500e+06	8.871760e+06	8.878200e+06	8.866180e+06	8.870800e+06	8.873420e+06	8.875100e+06	8.893520e+06	8.875740e+06	8.862580e+06	8.890160e+06	8.870140e+06	8.877260e+06	8.893420e+06	8.887620e+06	8.880060e+06	8.882960e+06	8.886040e+06	8.899460e+06	8.889860e+06	8.882920e+06	8.904120e+06	8.879760e+06	8.882760e+06	8.866100e+06	8.899320e+06	8.896280e+06	8.908040e+06	8.867780e+06	8.881300e+06	8.873960e+06	8.877800e+06	8.895480e+06	8.911780e+06	8.887800e+06	8.879120e+06	8.877480e+06	8.885520e+06	8.891140e+06	8.884940e+06	8.881180e+06	8.889060e+06	8.879840e+06	8.871440e+06	8.888300e+06	8.882180e+06	8.881780e+06	8.881840e+06	8.875560e+06	8.873420e+06	8.864640e+06	8.889360e+06	8.881760e+06	8.876380e+06	8.887120e+06	8.871060e+06	8.780040e+06	8.776680e+06	8.768820e+06	8.776640e+06	8.788940e+06	8.771700e+06	8.758800e+06	8.792440e+06	8.817640e+06	8.851220e+06	8.866620e+06	8.869040e+06	8.888020e+06	8.871680e+06	8.899080e+06	8.887980e+06	8.888980e+06	8.887160e+06	8.881500e+06	8.892560e+06	8.895660e+06	8.866800e+06	8.887760e+06	8.877020e+06	8.878980e+06	8.905020e+06	8.902140e+06	8.906000e+06	8.904580e+06	8.911680e+06	8.891560e+06	8.911880e+06	8.898980e+06	8.904080e+06	8.908820e+06	8.905180e+06	8.893420e+06	8.892680e+06	8.908620e+06	8.890140e+06	8.884500e+06	8.900360e+06	8.913500e+06	8.910080e+06	8.902100e+06	8.890640e+06	8.893540e+06	8.899000e+06	8.879080e+06	8.894960e+06	8.894620e+06	8.895380e+06	8.895100e+06	8.885800e+06	8.886100e+06	8.906920e+06	8.879460e+06	8.902380e+06	8.901020e+06	8.885320e+06	8.887700e+06	8.898080e+06	8.901760e+06	8.904360e+06	8.897660e+06
8.910240e+06	8.892380e+06	8.892780e+06	8.888280e+06	8.890800e+06	8.891500e+06	8.897540e+06	8.885900e+06	8.898020e+06	8.879300e+06	8.875780e+06	8.888460e+06	8.896840e+06	8.894600e+06	8.890160e+06	8.903460e+06	8.887120e+06	8.904200e+06	8.889240e+06	8.867640e+06	8.888520e+06	8.877480e+06	8.886800e+06	8.900780e+06	8.889740e+06	8.890880e+06	8.898500e+06	8.893260e+06	8.879160e+06	8.883500e+06	8.869500e+06	8.881880e+06	8.899100e+06	8.885040e+06	8.868100e+06	8.870940e+06	8.884860e+06	8.884240e+06	8.865380e+06	8.901000e+06	8.878860e+06	8.878800e+06	8.874500e+06	8.872480e+06	8.870840e+06	8.877700e+06	8.862900e+06	8.862220e+06	8.885680e+06	8.877280e+06	8.889840e+06	8.869080e+06	8.869440e+06	8.860680e+06	8.884240e+06	8.856580e+06	8.786300e+06	8.771220e+06	8.745100e+06	8.767480e+06	8.775340e+06	8.785000e+06	8.766380e+06	8.787180e+06	8.803020e+06	8.847400e+06	8.873440e+06	8.886300e+06	8.869220e+06	8.879100e+06	8.878320e+06	8.891640e+06	8.889460e+06	8.861440e+06	8.893280e+06	8.878280e+06	8.865280e+06	8.880960e+06	8.880020e+06	8.882800e+06	8.885800e+06	8.885000e+06	8.876660e+06	8.892280e+06	8.888440e+06	8.897920e+06	8.894000e+06	8.878360e+06	8.897240e+06	8.895640e+06	8.897300e+06	8.879440e+06	8.879120e+06	8.881740e+06	8.891600e+06	8.873480e+06	8.890000e+06	8.883340e+06	8.870360e+06	8.876580e+06	8.885520e+06	8.880480e+06	8.867740e+06	8.869420e+06	8.866060e+06	8.876980e+06	8.898520e+06	8.890460e+06	8.898120e+06	8.890060e+06	8.893660e+06	8.884480e+06	8.883680e+06	8.871600e+06	8.885240e+06	8.877680e+06	8.882800e+06	8.884180e+06	8.885580e+06	8.884020e+06	8.885500e+06
8.913440e+06	8.911880e+06	8.917720e+06	8.914120e+06	8.914540e+06	8.914720e+06	8.924000e+06	8.927100e+06	8.906620e+06	8.909060e+06	8.929460e+06	8.924180e+06	8.914360e+06	8.921360e+06	8.928800e+06	8.925600e+06	8.924180e+06	8.922080e+06	8.912880e+06	8.915160e+06	8.920100e+06	8.947300e+06	8.908300e+06	8.911000e+06	8.914840e+06	8.914860e+06	8.916240e+06	8.918160e+06	8.909600e+06	8.900620e+06	8.896500e+06	8.915680e+06	8.895740e+06	8.912740e+06	8.887380e+06	8.879580e+06	8.892760e+06	8.904880e+06	8.898380e+06	8.902200e+06	8.900860e+06	8.900360e+06	8.907020e+06	8.908600e+06	8.922000e+06	8.889780e+06	8.919720e+06	8.906940e+06	8.912400e+06	8.896220e+06	8.899740e+06	8.905060e+06	8.904500e+06	8.883820e+06	8.883020e+06	8.867560e+06	8.806600e+06	8.779420e+06	8.773300e+06	8.792780e+06	8.803220e+06	8.767160e+06	8.779300e+06	8.795580e+06	8.815880e+06	8.857600e+06	8.889980e+06	8.895860e+06	8.901560e+06	8.896560e+06	8.907380e+06	8.901660e+06	8.909000e+06	8.900240e+06	8.904860e+06	8.902280e+06	8.899440e+06	8.889060e+06	8.909120e+06	8.901860e+06	8.905240e+06	8.896920e+06	8.902080e+06	8.902500e+06	8.900540e+06	8.886860e+06	8.897500e+06	8.909180e+06	8.880400e+06	8.916080e+06	8.883380e+06	8.886780e+06	8.871420e+06	8.887080e+06	8.886580e+06	8.867700e+06	8.879180e+06	8.882520e+06	8.894700e+06	8.888260e+06	8.888540e+06	8.905560e+06	8.884580e+06	8.871480e+06	8.870460e+06	8.891560e+06	8.877120e+06	8.882620e+06	8.903300e+06	8.887460e+06	8.900640e+06	8.906200e+06	8.884560e+06	8.887440e+06	8.891260e+06	8.877120e+06	8.883940e+06	8.884340e+06	8.879340e+06	8.874680e+06	8.889680e+06
8.911100e+06	8.903440e+06	8.897200e+06	8.890800e+06	8.902000e+06	8.920180e+06	8.894060e+06	8.923920e+06	8.909540e+06	8.902480e+06	8.899740e+06	8.907400e+06	8.900220e+06	8.906640e+06	8.909480e+06	8.901560e+06	8.889280e+06	8.908020e+06	8.903540e+06	8.904120e+06	8.910880e+06	8.896980e+06	8.897240e+06	8.908960e+06	8.922080e+06	8.893380e+06	8.896060e+06	8.913500e+06	8.896680e+06	8.910480e+06	8.911460e+06	8.916380e+06	8.927100e+06	8.911260e+06	8.922880e+06	8.913480e+06	8.903260e+06	8.912440e+06	8.898460e+06	8.893580e+06	8.899220e+06	8.903860e+06	8.895460e+06	8.907980e+06	8.898940e+06	8.915720e+06	8.909640e+06	8.911240e+06	8.898740e+06	8.914400e+06	8.908880e+06	8.914820e+06	8.907020e+06	8.896500e+06	8.885600e+06	8.853880e+06	8.812120e+06	8.782200e+06	8.764300e+06	8.801660e+06	8.819260e+06	8.801420e+06	8.775580e+06	8.804060e+06	8.842080e+06	8.879000e+06	8.896420e+06	8.904800e+06	8.901980e+06	8.926960e+06	8.914400e+06	8.931200e+06	8.903020e+06	8.914860e+06	8.904200e+06	8.909340e+06	8.934780e+06	8.913020e+06	8.919500e+06	8.909480e+06	8.922880e+06	8.918200e+06	8.923900e+06	8.919760e+06	8.919480e+06	8.919120e+06	8.925980e+06	8.910800e+06	8.907020e+06	8.921660e+06	8.915320e+06	8.904620e+06	8.912320e+06	8.909600e+06	8.914360e+06	8.921340e+06	8.912820e+06	8.928640e+06	8.913000e+06	8.920580e+06	8.924680e+06	8.932440e+06	8.953460e+06	8.929520e+06	8.924440e+06	8.932100e+06	8.919020e+06	8.916620e+06	8.915760e+06	8.923860e+06	8.926280e+06	8.917080e+06	8.906280e+06	8.918280e+06	8.909180e+06	8.907080e+06	8.901600e+06	8.924920e+06	8.925120e+06	8.905240e+06	8.904040e+06
8.914520e+06	8.920080e+06	8.892780e+06	8.911060e+06	8.896040e+06	8.894660e+06	8.902600e+06	8.912600e+06	8.916760e+06	8.918200e+06	8.914640e+06	8.921600e+06	8.921060e+06	8.910680e+06	8.909080e+06	8.897000e+06	8.916420e+06	8.922120e+06	8.905820e+06	8.908200e+06	8.908080e+06	8.913960e+06	8.909660e+06	8.897920e+06	8.918180e+06	8.922260e+06	8.920840e+06	8.921820e+06	8.917540e+06	8.900920e+06	8.910180e+06	8.904100e+06	8.911060e+06	8.912980e+06	8.905220e+06	8.898840e+06	8.914600e+06	8.911620e+06	8.912900e+06	8.923460e+06	8.919060e+06	8.925920e+06	8.924120e+06	8.916860e+06	8.905060e+06	8.913400e+06	8.906360e+06	8.911020e+06	8.906000e+06	8.908600e+06	8.921380e+06	8.919160e+06	8.917120e+06	8.884340e+06	8.890020e+06	8.868620e+06	8.812040e+06	8.805740e+06	8.784260e+06	8.798280e+06	8.836580e+06	8.797940e+06	8.783480e+06	8.805300e+06	8.839400e+06	8.880400e+06	8.905460e+06	8.917420e+06	8.914740e+06	8.901100e+06	8.931420e+06	8.922080e+06	8.909220e+06	8.912400e+06	8.923500e+06	8.928500e+06	8.926740e+06	8.908500e+06	8.917160e+06	8.914720e+06	8.922780e+06	8.903800e+06	8.918120e+06	8.925080e+06	8.930800e+06	8.923500e+06	8.918260e+06	8.929580e+06	8.921060e+06	8.924480e+06	8.919220e+06	8.900420e+06	8.912100e+06	8.911520e+06	8.911580e+06	8.901520e+06	8.919920e+06	8.906940e+06	8.918600e+06	8.916740e+06	8.918040e+06	8.926760e+06	8.916160e+06	8.917500e+06	8.918680e+06	8.906480e+06	8.916620e+06	8.904200e+06	8.903800e+06	8.919180e+06	8.914180e+06	8.903220e+06	8.910340e+06	8.900760e+06	8.899100e+06	8.907080e+06	8.896100e+06	8.893660e+06	8.897700e+06	8.889300e+06	8.908560e+06
8.873740e+06	8.859540e+06	8.873900e+06	8.854380e+06	8.873460e+06	8.876900e+06	8.876740e+06	8.871460e+06	8.853900e+06	8.864320e+06	8.865360e+06	8.865060e+06	8.862640e+06	8.871640e+06	8.863320e+06	8.881480e+06	8.874340e+06	8.854900e+06	8.861180e+06	8.869140e+06	8.868320e+06	8.862560e+06	8.886440e+06	8.879040e+06	8.872640e+06	8.862520e+06	8.863240e+06	8.867140e+06	8.877620e+06	8.881960e+06	8.866880e+06	8.860020e+06	8.873080e+06	8.867820e+06	8.860200e+06	8.849180e+06	8.859180e+06	8.863540e+06	8.856680e+06	8.883820e+06	8.874180e+06	8.868760e+06	8.880220e+06	8.881100e+06	8.873600e+06	8.854320e+06	8.870980e+06	8.877260e+06	8.878280e+06	8.880580e+06	8.869040e+06	8.878620e+06	8.880800e+06	8.871140e+06	8.865320e+06	8.831840e+06	8.780340e+06	8.745860e+06	8.753200e+06	8.775860e+06	8.779220e+06	8.789880e+06	8.749620e+06	8.776600e+06	8.796700e+06	8.846440e+06	8.876540e+06	8.879120e+06	8.891220e+06	8.897620e+06	8.897480e+06	8.898820e+06	8.904960e+06	8.903860e+06	8.892780e+06	8.892200e+06	8.890220e+06	8.894480e+06	8.897360e+06	8.902900e+06	8.896420e+06	8.895600e+06	8.900000e+06	8.907500e+06	8.901900e+06	8.893800e+06	8.900840e+06	8.902460e+06	8.890180e+06	8.911000e+06	8.914120e+06	8.897820e+06	8.887180e+06	8.889680e+06	8.887620e+06	8.888180e+06	8.885560e+06	8.896280e+06	8.890540e+06	8.895360e+06	8.889560e+06	8.915340e+06	8.899960e+06	8.897620e+06	8.914940e+06	8.901700e+06	8.910800e+06	8.896340e+06	8.888180e+06	8.890040e+06	8.896880e+06	8.917320e+06	8.914140e+06	8.909460e+06	8.900020e+06	8.890220e+06	8.900520e+06	8.893920e+06	8.915540e+06	8.907280e+06	8.913560e+06
8.873520e+06	8.865700e+06	8.870880e+06	8.873580e+06	8.873480e+06	8.871860e+06	8.869920e+06	8.868940e+06	8.875340e+06	8.866220e+06	8.843000e+06	8.871840e+06	8.870820e+06	8.877520e+06	8.869360e+06	8.851780e+06	8.868500e+06	8.886240e+06	8.852300e+06	8.874600e+06	8.872460e+06	8.869980e+06	8.865580e+06	8.862560e+06	8.870220e+06	8.869520e+06	8.864680e+06	8.872240e+06	8.863780e+06	8.867940e+06	8.863860e+06	8.852940e+06	8.869680e+06	8.862460e+06	8.880860e+06	8.880000e+06	8.866360e+06	8.870920e+06	8.892240e+06	8.881100e+06	8.872820e+06	8.862880e+06	8.864720e+06	8.866080e+06	8.879680e+06	8.870460e+06	8.874220e+06	8.878900e+06	8.882920e+06	8.879720e+06	8.867220e+06	8.878700e+06	8.858920e+06	8.869720e+06	8.857080e+06	8.851240e+06	8.785060e+06	8.781600e+06	8.749300e+06	8.783060e+06	8.786960e+06	8.768060e+06	8.746400e+06	8.767580e+06	8.774860e+06	8.836220e+06	8.850840e+06	8.868180e+06	8.892800e+06	8.876640e+06	8.871960e+06	8.864420e+06	8.879500e+06	8.882320e+06	8.870880e+06	8.865440e+06	8.879720e+06	8.868600e+06	8.855260e+06	8.865680e+06	8.877120e+06	8.867220e+06	8.885500e+06	8.877820e+06	8.853800e+06	8.878060e+06	8.861380e+06	8.858260e+06	8.867900e+06	8.866140e+06	8.880580e+06	8.865620e+06	8.865360e+06	8.882340e+06	8.872760e+06	8.871860e+06	8.867820e+06	8.871180e+06	8.861480e+06	8.875320e+06	8.880900e+06	8.881620e+06	8.873980e+06	8.875600e+06	8.877660e+06	8.889900e+06	8.883020e+06	8.888880e+06	8.881440e+06	8.876060e+06	8.871780e+06	8.886080e+06	8.898140e+06	8.887300e+06	8.881520e+06	8.875800e+06	8.890760e+06	8.863880e+06	8.857360e+06	8.875620e+06	8.866220e+06
8.888280e+06	8.864000e+06	8.886620e+06	8.881420e+06	8.886340e+06	8.877420e+06	8.871320e+06	8.882340e+06	8.870480e+06	8.873080e+06	8.872660e+06	8.879780e+06	8.875820e+06	8.872360e+06	8.883780e+06	8.871000e+06	8.876120e+06	8.888980e+06	8.878600e+06	8.868440e+06	8.889540e+06	8.876420e+06	8.871660e+06	8.879060e+06	8.879720e+06	8.890000e+06	8.875280e+06	8.871140e+06	8.875040e+06	8.880340e+06	8.871700e+06	8.870400e+06	8.865560e+06	8.890180e+06	8.878480e+06	8.884880e+06	8.885540e+06	8.881320e+06	8.880440e+06	8.878140e+06	8.872120e+06	8.870880e+06	8.896280e+06	8.892320e+06	8.892100e+06	8.872700e+06	8.872280e+06	8.885680e+06	8.857460e+06	8.884520e+06	8.859960e+06	8.865480e+06	8.873380e+06	8.856000e+06	8.864800e+06	8.839560e+06	8.787900e+06	8.763180e+06	8.757720e+06	8.771300e+06	8.768880e+06	8.753800e+06	8.741440e+06	8.766280e+06	8.794420e+06	8.828520e+06	8.846940e+06	8.860900e+06	8.854300e+06	8.862800e+06	8.865480e+06	8.860560e+06	8.882800e+06	8.866420e+06	8.876160e+06	8.874060e+06	8.869020e+06	8.883820e+06	8.871500e+06	8.861660e+06	8.874340e+06	8.877220e+06	8.881780e+06	8.868320e+06	8.875000e+06	8.877760e+06	8.867560e+06	8.869300e+06	8.874960e+06	8.863900e+06	8.856400e+06	8.866660e+06	8.882240e+06	8.869440e+06	8.885660e+06	8.870980e+06	8.874820e+06	8.853460e+06	8.887000e+06	8.864940e+06	8.872540e+06	8.876320e+06	8.877140e+06	8.876580e+06	8.873840e+06	8.888580e+06	8.872900e+06	8.867200e+06	8.863120e+06	8.866100e+06	8.890680e+06	8.867180e+06	8.884760e+06	8.844000e+06	8.850560e+06	8.876260e+06	8.865640e+06	8.870720e+06	8.868820e+06	8.864720e+06	8.858600e+06
8.865420e+06	8.862980e+06	8.878060e+06	8.865580e+06	8.867920e+06	8.846520e+06	8.858420e+06	8.867620e+06	8.874640e+06	8.861600e+06	8.860660e+06	8.866480e+06	8.880800e+06	8.886000e+06	8.870480e+06	8.878780e+06	8.866020e+06	8.871060e+06	8.872680e+06	8.875480e+06	8.871260e+06	8.899760e+06	8.872200e+06	8.874020e+06	8.867660e+06	8.880140e+06	8.873520e+06	8.893180e+06	8.866160e+06	8.865720e+06	8.874200e+06	8.878580e+06	8.879860e+06	8.873140e+06	8.863040e+06	8.884940e+06	8.857820e+06	8.875500e+06	8.864100e+06	8.866920e+06	8.863780e+06	8.873740e+06	8.876700e+06	8.881300e+06	8.871820e+06	8.877600e+06	8.892620e+06	8.873340e+06	8.863860e+06	8.861520e+06	8.867660e+06	8.857280e+06	8.861560e+06	8.881340e+06	8.832740e+06	8.842640e+06	8.774500e+06	8.769720e+06	8.751140e+06	8.762160e+06	8.760800e+06	8.762160e+06	8.747720e+06	8.764980e+06	8.788960e+06	8.838400e+06	8.846880e+06	8.874700e+06	8.864980e+06	8.872780e+06	8.885340e+06	8.874620e+06	8.871860e+06	8.886180e+06	8.891680e+06	8.868060e+06	8.894520e+06	8.877920e+06	8.888440e+06	8.879380e+06	8.879760e+06	8.870280e+06	8.874820e+06	8.891660e+06	8.877200e+06	8.869260e+06	8.874400e+06	8.872300e+06	8.875520e+06	8.864400e+06	8.895920e+06	8.881980e+06	8.878060e+06	8.863520e+06	8.892440e+06	8.880920e+06	8.880260e+06	8.853960e+06	8.886720e+06	8.870840e+06	8.878540e+06	8.882500e+06	8.873400e+06	8.888360e+06	8.898100e+06	8.887340e+06	8.874560e+06	8.880300e+06	8.862380e+06	8.877820e+06	8.857560e+06	8.889040e+06	8.859720e+06	8.869860e+06	8.860760e+06	8.870000e+06	8.877680e+06	8.872840e+06	8.891620e+06	8.866860e+06	8.877420e+06
8.871680e+06	8.859140e+06	8.868400e+06	8.868860e+06	8.870220e+06	8.878200e+06	8.873780e+06	8.871220e+06	8.866660e+06	8.866020e+06	8.868280e+06	8.869080e+06	8.880600e+06	8.864020e+06	8.870500e+06	8.867880e+06	8.867720e+06	8.863320e+06	8.861500e+06	8.864780e+06	8.882720e+06	8.864820e+06	8.858440e+06	8.859120e+06	8.859720e+06	8.854320e+06	8.869180e+06	8.863080e+06	8.880260e+06	8.877740e+06	8.873660e+06	8.885860e+06	8.882100e+06	8.855860e+06	8.882160e+06	8.862180e+06	8.866160e+06	8.869000e+06	8.866940e+06	8.878180e+06	8.874100e+06	8.871720e+06	8.867500e+06	8.864020e+06	8.872760e+06	8.855840e+06	8.860420e+06	8.875880e+06	8.861300e+06	8.859800e+06	8.868300e+06	8.868140e+06	8.875120e+06	8.853480e+06	8.856220e+06	8.820640e+06	8.762440e+06	8.751260e+06	8.730380e+06	8.769580e+06	8.775060e+06	8.743300e+06	8.744560e+06	8.768000e+06	8.785640e+06	8.836760e+06	8.856840e+06	8.852760e+06	8.860840e+06	8.875800e+06	8.854280e+06	8.856000e+06	8.864740e+06	8.864880e+06	8.879720e+06	8.875280e+06	8.864780e+06	8.871800e+06	8.866020e+06	8.865180e+06	8.871640e+06	8.869560e+06	8.869640e+06	8.879860e+06	8.866680e+06	8.888600e+06	8.882960e+06	8.885200e+06	8.868360e+06	8.870780e+06	8.873060e+06	8.863640e+06	8.878500e+06	8.862200e+06	8.874700e+06	8.860660e+06	8.862940e+06	8.845800e+06	8.868280e+06	8.866200e+06	8.868040e+06	8.875580e+06	8.879540e+06	8.875740e+06	8.878840e+06	8.893320e+06	8.881880e+06	8.863340e+06	8.864160e+06	8.866440e+06	8.874100e+06	8.874020e+06	8.876100e+06	8.875880e+06	8.875540e+06	8.872620e+06	8.872860e+06	8.873320e+06	8.890560e+06	8.856660e+06	8.860800e+06
8.868040e+06	8.879720e+06	8.868720e+06	8.868460e+06	8.866380e+06	8.882140e+06	8.874640e+06	8.877020e+06	8.865000e+06	8.880200e+06	8.876580e+06	8.875780e+06	8.877500e+06	8.867600e+06	8.867420e+06	8.880500e+06	8.878920e+06	8.865620e+06	8.870060e+06	8.854720e+06	8.882340e+06	8.878380e+06	8.866340e+06	8.860920e+06	8.861860e+06	8.881060e+06	8.866900e+06	8.873260e+06	8.867900e+06	8.866700e+06	8.863040e+06	8.874800e+06	8.860540e+06	8.869080e+06	8.873080e+06	8.868560e+06	8.874140e+06	8.879820e+06	8.872480e+06	8.871520e+06	8.858120e+06	8.875480e+06	8.864660e+06	8.872700e+06	8.880080e+06	8.870440e+06	8.878600e+06	8.873720e+06	8.866800e+06	8.864740e+06	8.867840e+06	8.871560e+06	8.866240e+06	8.869780e+06	8.865200e+06	8.827080e+06	8.778840e+06	8.751820e+06	8.746440e+06	8.757820e+06	8.763040e+06	8.749900e+06	8.741060e+06	8.773260e+06	8.788860e+06	8.824300e+06	8.855220e+06	8.867540e+06	8.865440e+06	8.873180e+06	8.863640e+06	8.873180e+06	8.863800e+06	8.869500e+06	8.891020e+06	8.882900e+06	8.885780e+06	8.876240e+06	8.862260e+06	8.879000e+06	8.885720e+06	8.884160e+06	8.883460e+06	8.872620e+06	8.868100e+06	8.875600e+06	8.879140e+06	8.877900e+06	8.894300e+06	8.869980e+06	8.892000e+06	8.867760e+06	8.884840e+06	8.883320e+06	8.871280e+06	8.876240e+06	8.859840e+06	8.868540e+06	8.871540e+06	8.875160e+06	8.868580e+06	8.857300e+06	8.866800e+06	8.873160e+06	8.858800e+06	8.862140e+06	8.862940e+06	8.868100e+06	8.870000e+06	8.870240e+06	8.874200e+06	8.884440e+06	8.861420e+06	8.862280e+06	8.872420e+06	8.868360e+06	8.896960e+06	8.856320e+06	8.861760e+06	8.870380e+06	8.853600e+06
8.877460e+06	8.865780e+06	8.866320e+06	8.858240e+06	8.865500e+06	8.867040e+06	8.863320e+06	8.876200e+06	8.866620e+06	8.861880e+06	8.875560e+06	8.882020e+06	8.888040e+06	8.866220e+06	8.871240e+06	8.862220e+06	8.870340e+06	8.851660e+06	8.877720e+06	8.848740e+06	8.871340e+06	8.874620e+06	8.859340e+06	8.862300e+06	8.859920e+06	8.858980e+06	8.860560e+06	8.855940e+06	8.859560e+06	8.864380e+06	8.855320e+06	8.855500e+06	8.854800e+06	8.851120e+06	8.845500e+06	8.867180e+06	8.841480e+06	8.856980e+06	8.865840e+06	8.863180e+06	8.862460e+06	8.860060e+06	8.853820e+06	8.857900e+06	8.861660e+06	8.857260e+06	8.844580e+06	8.851780e+06	8.842380e+06	8.857800e+06	8.860620e+06	8.845600e+06	8.856700e+06	8.856080e+06	8.860280e+06	8.825260e+06	8.752080e+06	8.748620e+06	8.727340e+06	8.748380e+06	8.768380e+06	8.745900e+06	8.745060e+06	8.766860e+06	8.782000e+06	8.827660e+06	8.863500e+06	8.867340e+06	8.860100e+06	8.870120e+06	8.879820e+06	8.878980e+06	8.879920e+06	8.859120e+06	8.851620e+06	8.863040e+06	8.859140e+06	8.867320e+06	8.878140e+06	8.861860e+06	8.870180e+06	8.864120e+06	8.859240e+06	8.863620e+06	8.863540e+06	8.860820e+06	8.863120e+06	8.871440e+06	8.871320e+06	8.878480e+06	8.871760e+06	8.864980e+06	8.843460e+06	8.853220e+06	8.872820e+06	8.869420e+06	8.857400e+06	8.882360e+06	8.865340e+06	8.854840e+06	8.863800e+06	8.886340e+06	8.866240e+06	8.861100e+06	8.875080e+06	8.859320e+06	8.869640e+06	8.874580e+06	8.865960e+06	8.888200e+06	8.883440e+06	8.879680e+06	8.877240e+06	8.861040e+06	8.860660e+06	8.861240e+06	8.871060e+06	8.874840e+06	8.869240e+06	8.862320e+06	8.879600e+06
8.869180e+06	8.854900e+06	8.865760e+06	8.842360e+06	8.833300e+06	8.864980e+06	8.869220e+06	8.866720e+06	8.845280e+06	8.857220e+06	8.874540e+06	8.855160e+06	8.851180e+06	8.862180e+06	8.862420e+06	8.843860e+06	8.845660e+06	8.852440e+06	8.862280e+06	8.871620e+06	8.844300e+06	8.858400e+06	8.845460e+06	8.860620e+06	8.849740e+06	8.850600e+06	8.840200e+06	8.875680e+06	8.852440e+06	8.855660e+06	8.842260e+06	8.839620e+06	8.853700e+06	8.849960e+06	8.838040e+06	8.865880e+06	8.845120e+06	8.845260e+06	8.865000e+06	8.865580e+06	8.850720e+06	8.855860e+06	8.858740e+06	8.855880e+06	8.840880e+06	8.859640e+06	8.857040e+06	8.850940e+06	8.876320e+06	8.861000e+06	8.865820e+06	8.852260e+06	8.860580e+06	8.856020e+06	8.842260e+06	8.818700e+06	8.759200e+06	8.744840e+06	8.735380e+06	8.761540e+06	8.766820e+06	8.738800e+06	8.731100e+06	8.762900e+06	8.762460e+06	8.810720e+06	8.838580e+06	8.856020e+06	8.852900e+06	8.855420e+06	8.858960e+06	8.848920e+06	8.855480e+06	8.846540e+06	8.838700e+06	8.855200e+06	8.846800e+06	8.860400e+06	8.867820e+06	8.851020e+06	8.859080e+06	8.858240e+06	8.843760e+06	8.861900e+06	8.852860e+06	8.850360e+06	8.848180e+06	8.856080e+06	8.861040e+06	8.860680e+06	8.865860e+06	8.865860e+06	8.843260e+06	8.852660e+06	8.850540e+06	8.858380e+06	8.849680e+06	8.857980e+06	8.865260e+06	8.859520e+06	8.862760e+06	8.866860e+06	8.860500e+06	8.854240e+06	8.862160e+06	8.862380e+06	8.845940e+06	8.850440e+06	8.865980e+06	8.852800e+06	8.864660e+06	8.859460e+06	8.849960e+06	8.858380e+06	8.858760e+06	8.869620e+06	8.862080e+06	8.876060e+06	8.880460e+06	8.862780e+06	8.875820e+06
8.835900e+06	8.838660e+06	8.850000e+06	8.857200e+06	8.847780e+06	8.846740e+06	8.850240e+06	8.860120e+06	8.849420e+06	8.843040e+06	8.857260e+06	8.845100e+06	8.855740e+06	8.841920e+06	8.841380e+06	8.857300e+06	8.858680e+06	8.848320e+06	8.860100e+06	8.859240e+06	8.856320e+06	8.852360e+06	8.854060e+06	8.852420e+06	8.849800e+06	8.855320e+06	8.852600e+06	8.852900e+06	8.840440e+06	8.853820e+06	8.867220e+06	8.859860e+06	8.848580e+06	8.846840e+06	8.841380e+06	8.836440e+06	8.847940e+06	8.842300e+06	8.874860e+06	8.856640e+06	8.853960e+06	8.858080e+06	8.850340e+06	8.858520e+06	8.854980e+06	8.850140e+06	8.853060e+06	8.859920e+06	8.844020e+06	8.861480e+06	8.849120e+06	8.852040e+06	8.857700e+06	8.842040e+06	8.831960e+06	8.809940e+06	8.767420e+06	8.728180e+06	8.715780e+06	8.754620e+06	8.734340e+06	8.723340e+06	8.725120e+06	8.749000e+06	8.747600e+06	8.821160e+06	8.834020e+06	8.827360e+06	8.833660e+06	8.856100e+06	8.860740e+06	8.844780e+06	8.844000e+06	8.849680e+06	8.852860e+06	8.856540e+06	8.845240e+06	8.845280e+06	8.852460e+06	8.851580e+06	8.857620e+06	8.859760e+06	8.835580e+06	8.863320e+06	8.843580e+06	8.861600e+06	8.854380e+06	8.855440e+06	8.853520e+06	8.860980e+06	8.842320e+06	8.859800e+06	8.849480e+06	8.866600e+06	8.855320e+06	8.854120e+06	8.860860e+06	8.864660e+06	8.855480e+06	8.854600e+06	8.858460e+06	8.859520e+06	8.857100e+06	8.858980e+06	8.863820e+06	8.851240e+06	8.866480e+06	8.857800e+06	8.847600e+06	8.869820e+06	8.864140e+06	8.855040e+06	8.864240e+06	8.864560e+06	8.863900e+06	8.864900e+06	8.852460e+06	8.860980e+06	8.861400e+06	8.860520e+06	8.862100e+06
8.871800e+06	8.847300e+06	8.848460e+06	8.863880e+06	8.854160e+06	8.846440e+06	8.864640e+06	8.868240e+06	8.847540e+06	8.853480e+06	8.851060e+06	8.848380e+06	8.857340e+06	8.849500e+06	8.873940e+06	8.860580e+06	8.863580e+06	8.844860e+06	8.857760e+06	8.857500e+06	8.868600e+06	8.846260e+06	8.843380e+06	8.837300e+06	8.862740e+06	8.853820e+06	8.847500e+06	8.858180e+06	8.842780e+06	8.825400e+06	8.859180e+06	8.840520e+06	8.858500e+06	8.845800e+06	8.848800e+06	8.841880e+06	8.849960e+06	8.849080e+06	8.844080e+06	8.856800e+06	8.852640e+06	8.854040e+06	8.864540e+06	8.837860e+06	8.856260e+06	8.852900e+06	8.852180e+06	8.850000e+06	8.844420e+06	8.849220e+06	8.848140e+06	8.843860e+06	8.835560e+06	8.847140e+06	8.830220e+06	8.816960e+06	8.760360e+06	8.749000e+06	8.717480e+06	8.748060e+06	8.758020e+06	8.723660e+06	8.723420e+06	8.742260e+06	8.756220e+06	8.817720e+06	8.829040e+06	8.828340e+06	8.834240e+06	8.842200e+06	8.839840e+06	8.854780e+06	8.853800e+06	8.847160e+06	8.847000e+06	8.843340e+06	8.832920e+06	8.865100e+06	8.849760e+06	8.837880e+06	8.838120e+06	8.831800e+06	8.870120e+06	8.848440e+06	8.843460e+06	8.852460e+06	8.871800e+06	8.866440e+06	8.844720e+06	8.842660e+06	8.832740e+06	8.857000e+06	8.857400e+06	8.838360e+06	8.841680e+06	8.837240e+06	8.847640e+06	8.846860e+06	8.836180e+06	8.838760e+06	8.842560e+06	8.848940e+06	8.846300e+06	8.855340e+06	8.843860e+06	8.847860e+06	8.843720e+06	8.854820e+06	8.853260e+06	8.847080e+06	8.858100e+06	8.844820e+06	8.846500e+06	8.848080e+06	8.854940e+06	8.865740e+06	8.876200e+06	8.842500e+06	8.847280e+06	8.838020e+06	8.852520e+06
8.842100e+06	8.831260e+06	8.852160e+06	8.839000e+06	8.840020e+06	8.864200e+06	8.850660e+06	8.850860e+06	8.857420e+06	8.853500e+06	8.839780e+06	8.843840e+06	8.842100e+06	8.849980e+06	8.849580e+06	8.854940e+06	8.837860e+06	8.857160e+06	8.842660e+06	8.862200e+06	8.850660e+06	8.846140e+06	8.844280e+06	8.855100e+06	8.824220e+06	8.843460e+06	8.843180e+06	8.841060e+06	8.856100e+06	8.841680e+06	8.845100e+06	8.839400e+06	8.844760e+06	8.849900e+06	8.857140e+06	8.853480e+06	8.854280e+06	8.856440e+06	8.847680e+06	8.847820e+06	8.837360e+06	8.842720e+06	8.836360e+06	8.839160e+06	8.839460e+06	8.857640e+06	8.859340e+06	8.830000e+06	8.848480e+06	8.850380e+06	8.837200e+06	8.855180e+06	8.850140e+06	8.839580e+06	8.837140e+06	8.817060e+06	8.756540e+06	8.730780e+06	8.715220e+06	8.735960e+06	8.747900e+06	8.734060e+06	8.725180e+06	8.734120e+06	8.750000e+06	8.818880e+06	8.835860e+06	8.841480e+06	8.841400e+06	8.848760e+06	8.842060e+06	8.853700e+06	8.851440e+06	8.851260e+06	8.845040e+06	8.849660e+06	8.848620e+06	8.847080e+06	8.845240e+06	8.844520e+06	8.869200e+06	8.868620e+06	8.836920e+06	8.848560e+06	8.854660e+06	8.856280e+06	8.848900e+06	8.850280e+06	8.840580e+06	8.866040e+06	8.863120e+06	8.873040e+06	8.859520e+06	8.840640e+06	8.833580e+06	8.838760e+06	8.857600e+06	8.858220e+06	8.852880e+06	8.856120e+06	8.855800e+06	8.854500e+06	8.849480e+06	8.845580e+06	8.853520e+06	8.850980e+06	8.854000e+06	8.856260e+06	8.840720e+06	8.845160e+06	8.855000e+06	8.850100e+06	8.857200e+06	8.853420e+06	8.854600e+06	8.863780e+06	8.846200e+06	8.853100e+06	8.852380e+06	8.845100e+06	8.838260e+06
8.862700e+06	8.849520e+06	8.839800e+06	8.857420e+06	8.856700e+06	8.848100e+06	8.865300e+06	8.866800e+06	8.844660e+06	8.868400e+06	8.856920e+06	8.856780e+06	8.849960e+06	8.839620e+06	8.846500e+06	8.847980e+06	8.856640e+06	8.851860e+06	8.862340e+06	8.850120e+06	8.861480e+06	8.846500e+06	8.851920e+06	8.861600e+06	8.850180e+06	8.845140e+06	8.840620e+06	8.834700e+06	8.860200e+06	8.866720e+06	8.856960e+06	8.858480e+06	8.845520e+06	8.861540e+06	8.835780e+06	8.860820e+06	8.857240e+06	8.844380e+06	8.850860e+06	8.841520e+06	8.859140e+06	8.854120e+06	8.847540e+06	8.858940e+06	8.827700e+06	8.841960e+06	8.851180e+06	8.853600e+06	8.847740e+06	8.838320e+06	8.831140e+06	8.845820e+06	8.841520e+06	8.822820e+06	8.837340e+06	8.809940e+06	8.760980e+06	8.726300e+06	8.725800e+06	8.724940e+06	8.754780e+06	8.732620e+06	8.723900e+06	8.729940e+06	8.748480e+06	8.812220e+06	8.832480e+06	8.831280e+06	8.850200e+06	8.830040e+06	8.835640e+06	8.853120e+06	8.853200e+06	8.852680e+06	8.847160e+06	8.836560e+06	8.842500e+06	8.835600e+06	8.835240e+06	8.833900e+06	8.838260e+06	8.841640e+06	8.863180e+06	8.828120e+06	8.846720e+06	8.859400e+06	8.838760e+06	8.841460e+06	8.850760e+06	8.855220e+06	8.852420e+06	8.839460e+06	8.829600e+06	8.848980e+06	8.836600e+06	8.842840e+06	8.836660e+06	8.853400e+06	8.844800e+06	8.834560e+06	8.846020e+06	8.850620e+06	8.846580e+06	8.849360e+06	8.852660e+06	8.862340e+06	8.847960e+06	8.840960e+06	8.847820e+06	8.849740e+06	8.853100e+06	8.859620e+06	8.844780e+06	8.832400e+06	8.860980e+06	8.841940e+06	8.857300e+06	8.839340e+06	8.840460e+06	8.859260e+06	8.846340e+06
8.848180e+06	8.848800e+06	8.851080e+06	8.845180e+06	8.848640e+06	8.851760e+06	8.839520e+06	8.847540e+06	8.837180e+06	8.844540e+06	8.856020e+06	8.853640e+06	8.856400e+06	8.856760e+06	8.847140e+06	8.851860e+06	8.862400e+06	8.850880e+06	8.861340e+06	8.858000e+06	8.851420e+06	8.847520e+06	8.851960e+06	8.840720e+06	8.850160e+06	8.844100e+06	8.848160e+06	8.872500e+06	8.845040e+06	8.848900e+06	8.857360e+06	8.845660e+06	8.844940e+06	8.840360e+06	8.845040e+06	8.868400e+06	8.860880e+06	8.853320e+06	8.849120e+06	8.870200e+06	8.840920e+06	8.829300e+06	8.853840e+06	8.837340e+06	8.839520e+06	8.849840e+06	8.835940e+06	8.849660e+06	8.851260e+06	8.856120e+06	8.830660e+06	8.845000e+06	8.836680e+06	8.841020e+06	8.815440e+06	8.818560e+06	8.746940e+06	8.728600e+06	8.723420e+06	8.726540e+06	8.757240e+06	8.730300e+06	8.711740e+06	8.741860e+06	8.745620e+06	8.802200e+06	8.828160e+06	8.830140e+06	8.838880e+06	8.842880e+06	8.856980e+06	8.829240e+06	8.845460e+06	8.864000e+06	8.848320e+06	8.852780e+06	8.822980e+06	8.836460e+06	8.838740e+06	8.848440e+06	8.845120e+06	8.844280e+06	8.834200e+06	8.857000e+06	8.848520e+06	8.861600e+06	8.840240e+06	8.851800e+06	8.857220e+06	8.834540e+06	8.855540e+06	8.843800e+06	8.834420e+06	8.837000e+06	8.856480e+06	8.853760e+06	8.860040e+06	8.854320e+06	8.854660e+06	8.849780e+06	8.857300e+06	8.860080e+06	8.854180e+06	8.842300e+06	8.859640e+06	8.864240e+06	8.840380e+06	8.854940e+06	8.861780e+06	8.858120e+06	8.848380e+06	8.852580e+06	8.864760e+06	8.858720e+06	8.852980e+06	8.837900e+06	8.863020e+06	8.858080e+06	8.848720e+06	8.847240e+06	8.867020e+06
8.851640e+06	8.849100e+06	8.863000e+06	8.849880e+06	8.853480e+06	8.862700e+06	8.850620e+06	8.858400e+06	8.850480e+06	8.868440e+06	8.864180e+06	8.857980e+06	8.855120e+06	8.844380e+06	8.850740e+06	8.838440e+06	8.852820e+06	8.863600e+06	8.850940e+06	8.860800e+06	8.869680e+06	8.849380e+06	8.837020e+06	8.842900e+06	8.856100e+06	8.863480e+06	8.842800e+06	8.845240e+06	8.854180e+06	8.838920e+06	8.843820e+06	8.859520e+06	8.841000e+06	8.851660e+06	8.846500e+06	8.845380e+06	8.846000e+06	8.854440e+06	8.858840e+06	8.869720e+06	8.844820e+06	8.858800e+06	8.858440e+06	8.868760e+06	8.855740e+06	8.843620e+06	8.834940e+06	8.850520e+06	8.845460e+06	8.861060e+06	8.837040e+06	8.833180e+06	8.847300e+06	8.837020e+06	8.838980e+06	8.824680e+06	8.756560e+06	8.738080e+06	8.721680e+06	8.750500e+06	8.759020e+06	8.737060e+06	8.736160e+06	8.747980e+06	8.764660e+06	8.815400e+06	8.827760e+06	8.837880e+06	8.849080e+06	8.848900e+06	8.839600e+06	8.867080e+06	8.851040e+06	8.868320e+06	8.854480e+06	8.841560e+06	8.869580e+06	8.850800e+06	8.848360e+06	8.851080e+06	8.851740e+06	8.842460e+06	8.864020e+06	8.850320e+06	8.849720e+06	8.833480e+06	8.841100e+06	8.847800e+06	8.860720e+06	8.855640e+06	8.862660e+06	8.845140e+06	8.851880e+06	8.855300e+06	8.856480e+06	8.855280e+06	8.857240e+06	8.853100e+06	8.848060e+06	8.858500e+06	8.868280e+06	8.846240e+06	8.850140e+06	8.854960e+06	8.864660e+06	8.852720e+06	8.851340e+06	8.849860e+06	8.847420e+06	8.860860e+06	8.866160e+06	8.863580e+06	8.849220e+06	8.859080e+06	8.848220e+06	8.844180e+06	8.857860e+06	8.847280e+06	8.837880e+06	8.849020e+06	8.845840e+06
8.857780e+06	8.850200e+06	8.855160e+06	8.843740e+06	8.857240e+06	8.855020e+06	8.836680e+06	8.849280e+06	8.858000e+06	8.856340e+06	8.849800e+06	8.867260e+06	8.866440e+06	8.852120e+06	8.833280e+06	8.850580e+06	8.836860e+06	8.847540e+06	8.851500e+06	8.868300e+06	8.864180e+06	8.872120e+06	8.845680e+06	8.857140e+06	8.863320e+06	8.850280e+06	8.860820e+06	8.840040e+06	8.834600e+06	8.865000e+06	8.856960e+06	8.839620e+06	8.858440e+06	8.848000e+06	8.843840e+06	8.842340e+06	8.856700e+06	8.859740e+06	8.846080e+06	8.853700e+06	8.857180e+06	8.845480e+06	8.857420e+06	8.851340e+06	8.843100e+06	8.852720e+06	8.842940e+06	8.862760e+06	8.859960e+06	8.854040e+06	8.853980e+06	8.854180e+06	8.847740e+06	8.847360e+06	8.838020e+06	8.808240e+06	8.761140e+06	8.746740e+06	8.723180e+06	8.747020e+06	8.743740e+06	8.745040e+06	8.706620e+06	8.746180e+06	8.757280e+06	8.792740e+06	8.833220e+06	8.839760e+06	8.832760e+06	8.856020e+06	8.848740e+06	8.848440e+06	8.848620e+06	8.849280e+06	8.854060e+06	8.853020e+06	8.843280e+06	8.851880e+06	8.860360e+06	8.857860e+06	8.838120e+06	8.863940e+06	8.854940e+06	8.852120e+06	8.866340e+06	8.862000e+06	8.865700e+06	8.853940e+06	8.844760e+06	8.864400e+06	8.859360e+06	8.863320e+06	8.845060e+06	8.854600e+06	8.859920e+06	8.857760e+06	8.848700e+06	8.849900e+06	8.844980e+06	8.856600e+06	8.856020e+06	8.853420e+06	8.862500e+06	8.855460e+06	8.869200e+06	8.857120e+06	8.859040e+06	8.869480e+06	8.860420e+06	8.868620e+06	8.860860e+06	8.860460e+06	8.844980e+06	8.859420e+06	8.849680e+06	8.850800e+06	8.852840e+06	8.859440e+06	8.845640e+06	8.841860e+06	8.846660e+06
8.849060e+06	8.841020e+06	8.839680e+06	8.823640e+06	8.834700e+06	8.834940e+06	8.851340e+06	8.836240e+06	8.834180e+06	8.846980e+06	8.833020e+06	8.850080e+06	8.845160e+06	8.831020e+06	8.832440e+06	8.834180e+06	8.838680e+06	8.849040e+06	8.840260e+06	8.834600e+06	8.840940e+06	8.847020e+06	8.841260e+06	8.837300e+06	8.841140e+06	8.833200e+06	8.829760e+06	8.823540e+06	8.852500e+06	8.862100e+06	8.843480e+06	8.847800e+06	8.846260e+06	8.847520e+06	8.836860e+06	8.839380e+06	8.829820e+06	8.843840e+06	8.845240e+06	8.848400e+06	8.848000e+06	8.839700e+06	8.857980e+06	8.839160e+06	8.853440e+06	8.845120e+06	8.857660e+06	8.849120e+06	8.833240e+06	8.852760e+06	8.839720e+06	8.832660e+06	8.842940e+06	8.839400e+06	8.830260e+06	8.817200e+06	8.741040e+06	8.714080e+06	8.723720e+06	8.737300e+06	8.747420e+06	8.729620e+06	8.706880e+06	8.745640e+06	8.753340e+06	8.805660e+06	8.816840e+06	8.826340e+06	8.830360e+06	8.847700e+06	8.822800e+06	8.856740e+06	8.848900e+06	8.826480e+06	8.852640e+06	8.843200e+06	8.825280e+06	8.833780e+06	8.843840e+06	8.847960e+06	8.845380e+06	8.858340e+06	8.834500e+06	8.845120e+06	8.842600e+06	8.844080e+06	8.853520e+06	8.844980e+06	8.845440e+06	8.847520e+06	8.846460e+06	8.858800e+06	8.870240e+06	8.844760e+06	8.837100e+06	8.834400e+06	8.847260e+06	8.834600e+06	8.837800e+06	8.835400e+06	8.841060e+06	8.850280e+06	8.843400e+06	8.853800e+06	8.850800e+06	8.842480e+06	8.842700e+06	8.835620e+06	8.853920e+06	8.839520e+06	8.840740e+06	8.852080e+06	8.842000e+06	8.853600e+06	8.835080e+06	8.851200e+06	8.844220e+06	8.869340e+06	8.853360e+06	8.838740e+06	8.855260e+06
8.842800e+06	8.844480e+06	8.830880e+06	8.835700e+06	8.839440e+06	8.842540e+06	8.842400e+06	8.850540e+06	8.839660e+06	8.823180e+06	8.839840e+06	8.842220e+06	8.846540e+06	8.838120e+06	8.840420e+06	8.844280e+06	8.840480e+06	8.856440e+06	8.827540e+06	8.840340e+06	8.852920e+06	8.828400e+06	8.851500e+06	8.822420e+06	8.835200e+06	8.831620e+06	8.847040e+06	8.839440e+06	8.835000e+06	8.836340e+06	8.834060e+06	8.834120e+06	8.836900e+06	8.837320e+06	8.830020e+06	8.823140e+06	8.843020e+06	8.845000e+06	8.839200e+06	8.849200e+06	8.836640e+06	8.848100e+06	8.855460e+06	8.838000e+06	8.825340e+06	8.816140e+06	8.853140e+06	8.836480e+06	8.833980e+06	8.838200e+06	8.832980e+06	8.827440e+06	8.835100e+06	8.827780e+06	8.807780e+06	8.802060e+06	8.733740e+06	8.720900e+06	8.701600e+06	8.726560e+06	8.724960e+06	8.733700e+06	8.698840e+06	8.741100e+06	8.758280e+06	8.794380e+06	8.827220e+06	8.834560e+06	8.844720e+06	8.839240e+06	8.832160e+06	8.832540e+06	8.834040e+06	8.836420e+06	8.839400e+06	8.829220e+06	8.841440e+06	8.831540e+06	8.852780e+06	8.824700e+06	8.831260e+06	8.834980e+06	8.841060e+06	8.844120e+06	8.827660e+06	8.851440e+06	8.842660e+06	8.830180e+06	8.833700e+06	8.837320e+06	8.845720e+06	8.834980e+06	8.832040e+06	8.849920e+06	8.833760e+06	8.827340e+06	8.837020e+06	8.850640e+06	8.848260e+06	8.834540e+06	8.849140e+06	8.838780e+06	8.835900e+06	8.823940e+06	8.840340e+06	8.840360e+06	8.837120e+06	8.832020e+06	8.842360e+06	8.835860e+06	8.839800e+06	8.839040e+06	8.826860e+06	8.836660e+06	8.844480e+06	8.844460e+06	8.838340e+06	8.839640e+06	8.830460e+06	8.841140e+06	8.839000e+06
8.836960e+06	8.841720e+06	8.833260e+06	8.843400e+06	8.843760e+06	8.823180e+06	8.834720e+06	8.836320e+06	8.839020e+06	8.823440e+06	8.850620e+06	8.822480e+06	8.848720e+06	8.840620e+06	8.847540e+06	8.839320e+06	8.825200e+06	8.844340e+06	8.824620e+06	8.827840e+06	8.840880e+06	8.835860e+06	8.827240e+06	8.834600e+06	8.831800e+06	8.812980e+06	8.830400e+06	8.835200e+06	8.839720e+06	8.838220e+06	8.842520e+06	8.834440e+06	8.842820e+06	8.831720e+06	8.832880e+06	8.833260e+06	8.834440e+06	8.845880e+06	8.843720e+06	8.841660e+06	8.826080e+06	8.832680e+06	8.834740e+06	8.834260e+06	8.850120e+06	8.839200e+06	8.840840e+06	8.837840e+06	8.834040e+06	8.832640e+06	8.841940e+06	8.835020e+06	8.826800e+06	8.820900e+06	8.834940e+06	8.801220e+06	8.739540e+06	8.716680e+06	8.702820e+06	8.740880e+06	8.729440e+06	8.716000e+06	8.702080e+06	8.735840e+06	8.744940e+06	8.788460e+06	8.810380e+06	8.823560e+06	8.829020e+06	8.835100e+06	8.846720e+06	8.840960e+06	8.832540e+06	8.838120e+06	8.839100e+06	8.832140e+06	8.840040e+06	8.839140e+06	8.833660e+06	8.828380e+06	8.832720e+06	8.836100e+06	8.830720e+06	8.825620e+06	8.838060e+06	8.837220e+06	8.831740e+06	8.823120e+06	8.823280e+06	8.834340e+06	8.839540e+06	8.823400e+06	8.828400e+06	8.827740e+06	8.843800e+06	8.820860e+06	8.830320e+06	8.841980e+06	8.838320e+06	8.830680e+06	8.847960e+06	8.828460e+06	8.840260e+06	8.842720e+06	8.843800e+06	8.841620e+06	8.831520e+06	8.836920e+06	8.853740e+06	8.847960e+06	8.842040e+06	8.829300e+06	8.846060e+06	8.852400e+06	8.836700e+06	8.857380e+06	8.842160e+06	8.844980e+06	8.839280e+06	8.851600e+06	8.856620e+06
8.822640e+06	8.820460e+06	8.840400e+06	8.834060e+06	8.828540e+06	8.847340e+06	8.838480e+06	8.826300e+06	8.825860e+06	8.839240e+06	8.839400e+06	8.840620e+06	8.831140e+06	8.829760e+06	8.828420e+06	8.855120e+06	8.835980e+06	8.841160e+06	8.839120e+06	8.830320e+06	8.849600e+06	8.818960e+06	8.834020e+06	8.847040e+06	8.833800e+06	8.838640e+06	8.838600e+06	8.840940e+06	8.825260e+06	8.815620e+06	8.831300e+06	8.841360e+06	8.832620e+06	8.829620e+06	8.835900e+06	8.839160e+06	8.828960e+06	8.832040e+06	8.839640e+06	8.835080e+06	8.851260e+06	8.847300e+06	8.828540e+06	8.828100e+06	8.854520e+06	8.843020e+06	8.842740e+06	8.827800e+06	8.825080e+06	8.828640e+06	8.825880e+06	8.824120e+06	8.822360e+06	8.818600e+06	8.826460e+06	8.804160e+06	8.737060e+06	8.736000e+06	8.701700e+06	8.725220e+06	8.746480e+06	8.709960e+06	8.694160e+06	8.738140e+06	8.740980e+06	8.778380e+06	8.812300e+06	8.823040e+06	8.826480e+06	8.820360e+06	8.828740e+06	8.829720e+06	8.831700e+06	8.827600e+06	8.832040e+06	8.833760e+06	8.821380e+06	8.852040e+06	8.833560e+06	8.832060e+06	8.838120e+06	8.832560e+06	8.832720e+06	8.849480e+06	8.832220e+06	8.832860e+06	8.828300e+06	8.825560e+06	8.845100e+06	8.830420e+06	8.835980e+06	8.830680e+06	8.835880e+06	8.834260e+06	8.826020e+06	8.819780e+06	8.827800e+06	8.843280e+06	8.839400e+06	8.837180e+06	8.828520e+06	8.834860e+06	8.815280e+06	8.818320e+06	8.847580e+06	8.827780e+06	8.842440e+06	8.824960e+06	8.837420e+06	8.820880e+06	8.833920e+06	8.832780e+06	8.837880e+06	8.838900e+06	8.832980e+06	8.836620e+06	8.831680e+06	8.826780e+06	8.837500e+06	8.839180e+06	8.837240e+06
8.833080e+06	8.847780e+06	8.841380e+06	8.831540e+06	8.835460e+06	8.836900e+06	8.832180e+06	8.825340e+06	8.834520e+06	8.837000e+06	8.841480e+06	8.827320e+06	8.836180e+06	8.825620e+06	8.827620e+06	8.840380e+06	8.842880e+06	8.833940e+06	8.840680e+06	8.827240e+06	8.831020e+06	8.835500e+06	8.828040e+06	8.839420e+06	8.826320e+06	8.852000e+06	8.842860e+06	8.827800e+06	8.829960e+06	8.841880e+06	8.846360e+06	8.837380e+06	8.840620e+06	8.838560e+06	8.836520e+06	8.839680e+06	8.837900e+06	8.833260e+06	8.824780e+06	8.824960e+06	8.822120e+06	8.832540e+06	8.835920e+06	8.835060e+06	8.845340e+06	8.849460e+06	8.830900e+06	8.823200e+06	8.820720e+06	8.833100e+06	8.844780e+06	8.826740e+06	8.823520e+06	8.831900e+06	8.818380e+06	8.797320e+06	8.741540e+06	8.709840e+06	8.680720e+06	8.719660e+06	8.717260e+06	8.725860e+06	8.702880e+06	8.723740e+06	8.754340e+06	8.804440e+06	8.817280e+06	8.819940e+06	8.830120e+06	8.829840e+06	8.834500e+06	8.818380e+06	8.829540e+06	8.826300e+06	8.839780e+06	8.836260e+06	8.829280e+06	8.828420e+06	8.827700e+06	8.836000e+06	8.831060e+06	8.837020e+06	8.833760e+06	8.842540e+06	8.840220e+06	8.822760e+06	8.820480e+06	8.832980e+06	8.836060e+06	8.829800e+06	8.829060e+06	8.825000e+06	8.823260e+06	8.822020e+06	8.828360e+06	8.846460e+06	8.833300e+06	8.823160e+06	8.825360e+06	8.836780e+06	8.838080e+06	8.823040e+06	8.823040e+06	8.843640e+06	8.843940e+06	8.832440e+06	8.836580e+06	8.829880e+06	8.833860e+06	8.833400e+06	8.822100e+06	8.830400e+06	8.819280e+06	8.831800e+06	8.822480e+06	8.822040e+06	8.821520e+06	8.836840e+06	8.827600e+06	8.835440e+06	8.836340e+06
8.838340e+06	8.824720e+06	8.829400e+06	8.830720e+06	8.824820e+06	8.851420e+06	8.837540e+06	8.845500e+06	8.827720e+06	8.847740e+06	8.834540e+06	8.834100e+06	8.839720e+06	8.837380e+06	8.851180e+06	8.836820e+06	8.829440e+06	8.825540e+06	8.830700e+06	8.832500e+06	8.829740e+06	8.831360e+06	8.831500e+06	8.847260e+06	8.833680e+06	8.830760e+06	8.831840e+06	8.846840e+06	8.819400e+06	8.823140e+06	8.821500e+06	8.826140e+06	8.838060e+06	8.826260e+06	8.839240e+06	8.832220e+06	8.842340e+06	8.818200e+06	8.833260e+06	8.836440e+06	8.822980e+06	8.827900e+06	8.836080e+06	8.833540e+06	8.827600e+06	8.843220e+06	8.835840e+06	8.855220e+06	8.828240e+06	8.837600e+06	8.816200e+06	8.828180e+06	8.826000e+06	8.829760e+06	8.832500e+06	8.821100e+06	8.736860e+06	8.725000e+06	8.697720e+06	8.722900e+06	8.737580e+06	8.715640e+06	8.693860e+06	8.746760e+06	8.730860e+06	8.792880e+06	8.820760e+06	8.808020e+06	8.834760e+06	8.827340e+06	8.828500e+06	8.845520e+06	8.828260e+06	8.829380e+06	8.843860e+06	8.831980e+06	8.830840e+06	8.845000e+06	8.831420e+06	8.828280e+06	8.844640e+06	8.839560e+06	8.821280e+06	8.840300e+06	8.825240e+06	8.828000e+06	8.835520e+06	8.838580e+06	8.840840e+06	8.847440e+06	8.829880e+06	8.826320e+06	8.832460e+06	8.834160e+06	8.831900e+06	8.827640e+06	8.814780e+06	8.815000e+06	8.819600e+06	8.830460e+06	8.831740e+06	8.832480e+06	8.818840e+06	8.846040e+06	8.841080e+06	8.824900e+06	8.827780e+06	8.827140e+06	8.832580e+06	8.844660e+06	8.834860e+06	8.827460e+06	8.833620e+06	8.820520e+06	8.824680e+06	8.821400e+06	8.824360e+06	8.828740e+06	8.837540e+06	8.838820e+06	8.846580e+06
8.836600e+06	8.831960e+06	8.841200e+06	8.842300e+06	8.833840e+06	8.832200e+06	8.852180e+06	8.865340e+06	8.841560e+06	8.838880e+06	8.833800e+06	8.825380e+06	8.827180e+06	8.830900e+06	8.827500e+06	8.836080e+06	8.850880e+06	8.833420e+06	8.843540e+06	8.836980e+06	8.830360e+06	8.819060e+06	8.840240e+06	8.838200e+06	8.852080e+06	8.821000e+06	8.814620e+06	8.839880e+06	8.825620e+06	8.828480e+06	8.828620e+06	8.843600e+06	8.845820e+06	8.819060e+06	8.839940e+06	8.820540e+06	8.826180e+06	8.824140e+06	8.834780e+06	8.842260e+06	8.843420e+06	8.831500e+06	8.840660e+06	8.829920e+06	8.834420e+06	8.825700e+06	8.839900e+06	8.837560e+06	8.837540e+06	8.826280e+06	8.838920e+06	8.826880e+06	8.837060e+06	8.828620e+06	8.824060e+06	8.791820e+06	8.732880e+06	8.723280e+06	8.707140e+06	8.731020e+06	8.731100e+06	8.731900e+06	8.694560e+06	8.731300e+06	8.752060e+06	8.797400e+06	8.825420e+06	8.833580e+06	8.833160e+06	8.822960e+06	8.825780e+06	8.817840e+06	8.821340e+06	8.836080e+06	8.847480e+06	8.839100e+06	8.833040e+06	8.828820e+06	8.825120e+06	8.833440e+06	8.826040e+06	8.833660e+06	8.827000e+06	8.838960e+06	8.833360e+06	8.851300e+06	8.853840e+06	8.833660e+06	8.831080e+06	8.837480e+06	8.848620e+06	8.838920e+06	8.833080e+06	8.823780e+06	8.831520e+06	8.831720e+06	8.829720e+06	8.828060e+06	8.834400e+06	8.850420e+06	8.842400e+06	8.857940e+06	8.844360e+06	8.842240e+06	8.847200e+06	8.849140e+06	8.864280e+06	8.846420e+06	8.843340e+06	8.837920e+06	8.842620e+06	8.842300e+06	8.849440e+06	8.842980e+06	8.832000e+06	8.846920e+06	8.838840e+06	8.839620e+06	8.824480e+06	8.843740e+06	8.846520e+06
8.848260e+06	8.845020e+06	8.842040e+06	8.836440e+06	8.837100e+06	8.855920e+06	8.854640e+06	8.837840e+06	8.845260e+06	8.846480e+06	8.843120e+06	8.841600e+06	8.829740e+06	8.838100e+06	8.848660e+06	8.837480e+06	8.839260e+06	8.841720e+06	8.842640e+06	8.840520e+06	8.844140e+06	8.850260e+06	8.843680e+06	8.840420e+06	8.827160e+06	8.823020e+06	8.832300e+06	8.836620e+06	8.849160e+06	8.837240e+06	8.840240e+06	8.831960e+06	8.851460e+06	8.836480e+06	8.831100e+06	8.838600e+06	8.838360e+06	8.851140e+06	8.850760e+06	8.841460e+06	8.854540e+06	8.829320e+06	8.823780e+06	8.836700e+06	8.834180e+06	8.835640e+06	8.825280e+06	8.851180e+06	8.838300e+06	8.824480e+06	8.844040e+06	8.838420e+06	8.824880e+06	8.814780e+06	8.814560e+06	8.801540e+06	8.732560e+06	8.714320e+06	8.715280e+06	8.719720e+06	8.742060e+06	8.715020e+06	8.695000e+06	8.752860e+06	8.756420e+06	8.792900e+06	8.817120e+06	8.834060e+06	8.827880e+06	8.829000e+06	8.838720e+06	8.834720e+06	8.824280e+06	8.835260e+06	8.843760e+06	8.834680e+06	8.842580e+06	8.855640e+06	8.829040e+06	8.835800e+06	8.832980e+06	8.853220e+06	8.847540e+06	8.834420e+06	8.821600e+06	8.848240e+06	8.836140e+06	8.837100e+06	8.832320e+06	8.849640e+06	8.823960e+06	8.837280e+06	8.834900e+06	8.841740e+06	8.829940e+06	8.843920e+06	8.827820e+06	8.821800e+06	8.843060e+06	8.833960e+06	8.844640e+06	8.822740e+06	8.847580e+06	8.826980e+06	8.844920e+06	8.840520e+06	8.836880e+06	8.831340e+06	8.838400e+06	8.826980e+06	8.842060e+06	8.836480e+06	8.832260e+06	8.845880e+06	8.843360e+06	8.849820e+06	8.825820e+06	8.821580e+06	8.835360e+06	8.843760e+06	8.832900e+06
8.843000e+06	8.826220e+06	8.827220e+06	8.841420e+06	8.836120e+06	8.825860e+06	8.832760e+06	8.840480e+06	8.841560e+06	8.831380e+06	8.835980e+06	8.821480e+06	8.839040e+06	8.839920e+06	8.844220e+06	8.838480e+06	8.834300e+06	8.825180e+06	8.819740e+06	8.827020e+06	8.848720e+06	8.842560e+06	8.838160e+06	8.831160e+06	8.826260e+06	8.848560e+06	8.851320e+06	8.837040e+06	8.843520e+06	8.843400e+06	8.834080e+06	8.827940e+06	8.839860e+06	8.816760e+06	8.840420e+06	8.823160e+06	8.835200e+06	8.839480e+06	8.849480e+06	8.858360e+06	8.853580e+06	8.823440e+06	8.839940e+06	8.833920e+06	8.837140e+06	8.829700e+06	8.841080e+06	8.825400e+06	8.836840e+06	8.848200e+06	8.841040e+06	8.838260e+06	8.813580e+06	8.830540e+06	8.827800e+06	8.803160e+06	8.732100e+06	8.722960e+06	8.682420e+06	8.714280e+06	8.737520e+06	8.725460e+06	8.703080e+06	8.728300e+06	8.743800e+06	8.793000e+06	8.821360e+06	8.835000e+06	8.822460e+06	8.809860e+06	8.831540e+06	8.831960e+06	8.842420e+06	8.828600e+06	8.840480e+06	8.833040e+06	8.832440e+06	8.832880e+06	8.824640e+06	8.846240e+06	8.822120e+06	8.822940e+06	8.827520e+06	8.829660e+06	8.829600e+06	8.837200e+06	8.830560e+06	8.841900e+06	8.841040e+06	8.846300e+06	8.821140e+06	8.821860e+06	8.847900e+06	8.820340e+06	8.820000e+06	8.835920e+06	8.831220e+06	8.837320e+06	8.825860e+06	8.826140e+06	8.834080e+06	8.836700e+06	8.843740e+06	8.836740e+06	8.840120e+06	8.838780e+06	8.835980e+06	8.829820e+06	8.832100e+06	8.825500e+06	8.842820e+06	8.820900e+06	8.833860e+06	8.841720e+06	8.837940e+06	8.835060e+06	8.833920e+06	8.819360e+06	8.819680e+06	8.849140e+06	8.832640e+06
8.845600e+06	8.832800e+06	8.840000e+06	8.820040e+06	8.842080e+06	8.840560e+06	8.845460e+06	8.839700e+06	8.840900e+06	8.832060e+06	8.832260e+06	8.829040e+06	8.851600e+06	8.843820e+06	8.846600e+06	8.845880e+06	8.833060e+06	8.848740e+06	8.845720e+06	8.840560e+06	8.841540e+06	8.843320e+06	8.844380e+06	8.813120e+06	8.823300e+06	8.833200e+06	8.840740e+06	8.851180e+06	8.857560e+06	8.827840e+06	8.844680e+06	8.843100e+06	8.839500e+06	8.844220e+06	8.837780e+06	8.839880e+06	8.848900e+06	8.838860e+06	8.834840e+06	8.839600e+06	8.824720e+06	8.847180e+06	8.850760e+06	8.842760e+06	8.838620e+06	8.842240e+06	8.859100e+06	8.838660e+06	8.842580e+06	8.848400e+06	8.842340e+06	8.847800e+06	8.844820e+06	8.827620e+06	8.830180e+06	8.791420e+06	8.729300e+06	8.729720e+06	8.731440e+06	8.728040e+06	8.739820e+06	8.739140e+06	8.706660e+06	8.721720e+06	8.751180e+06	8.796720e+06	8.824560e+06	8.821440e+06	8.835280e+06	8.823760e+06	8.844640e+06	8.846360e+06	8.829500e+06	8.849380e+06	8.821840e+06	8.827180e+06	8.814300e+06	8.832360e+06	8.838680e+06	8.825700e+06	8.821120e+06	8.837660e+06	8.837380e+06	8.847120e+06	8.834540e+06	8.832500e+06	8.848940e+06	8.839420e+06	8.833180e+06	8.828420e+06	8.828440e+06	8.843280e+06	8.838300e+06	8.846520e+06	8.844980e+06	8.841620e+06	8.849980e+06	8.830840e+06	8.836580e+06	8.848440e+06	8.847020e+06	8.840020e+06	8.834960e+06	8.854680e+06	8.837480e+06	8.829800e+06	8.847000e+06	8.837340e+06	8.840100e+06	8.849620e+06	8.838760e+06	8.833720e+06	8.831480e+06	8.834020e+06	8.825900e+06	8.840860e+06	8.828340e+06	8.831700e+06	8.823440e+06	8.828920e+06	8.846260e+06
8.833180e+06	8.827640e+06	8.832820e+06	8.826500e+06	8.844700e+06	8.844520e+06	8.839900e+06	8.821740e+06	8.830560e+06	8.843520e+06	8.846120e+06	8.830180e+06	8.847400e+06	8.834800e+06	8.841780e+06	8.832100e+06	8.823620e+06	8.843100e+06	8.839540e+06	8.820680e+06	8.838340e+06	8.840760e+06	8.827180e+06	8.839860e+06	8.825320e+06	8.842200e+06	8.843720e+06	8.837060e+06	8.839260e+06	8.832480e+06	8.828420e+06	8.827880e+06	8.837080e+06	8.833600e+06	8.824280e+06	8.850300e+06	8.837700e+06	8.829620e+06	8.829660e+06	8.845140e+06	8.839840e+06	8.843820e+06	8.847960e+06	8.845020e+06	8.830620e+06	8.842340e+06	8.822340e+06	8.832600e+06	8.831160e+06	8.844000e+06	8.839480e+06	8.854160e+06	8.834140e+06	8.831960e+06	8.819580e+06	8.801020e+06	8.747740e+06	8.725100e+06	8.715420e+06	8.734580e+06	8.735900e+06	8.713940e+06	8.719320e+06	8.726760e+06	8.754780e+06	8.796900e+06	8.813680e+06	8.840580e+06	8.834240e+06	8.839860e+06	8.841780e+06	8.827760e+06	8.842100e+06	8.842160e+06	8.837740e+06	8.835500e+06	8.843060e+06	8.838000e+06	8.838500e+06	8.858260e+06	8.845940e+06	8.843000e+06	8.843900e+06	8.832080e+06	8.839520e+06	8.847060e+06	8.829840e+06	8.837680e+06	8.824320e+06	8.834040e+06	8.824940e+06	8.823400e+06	8.845680e+06	8.851500e+06	8.832240e+06	8.843540e+06	8.829280e+06	8.832820e+06	8.839700e+06	8.844640e+06	8.840760e+06	8.837240e+06	8.836200e+06	8.832120e+06	8.835200e+06	8.846320e+06	8.832580e+06	8.838520e+06	8.841700e+06	8.832920e+06	8.840660e+06	8.839940e+06	8.826380e+06	8.845840e+06	8.838020e+06	8.829320e+06	8.834100e+06	8.830480e+06	8.859220e+06	8.828080e+06	8.828080e+06
8.852660e+06	8.821440e+06	8.836920e+06	8.831320e+06	8.852720e+06	8.844580e+06	8.846400e+06	8.839980e+06	8.843600e+06	8.830140e+06	8.840940e+06	8.846200e+06	8.848780e+06	8.838560e+06	8.833040e+06	8.850040e+06	8.839800e+06	8.828820e+06	8.840400e+06	8.841900e+06	8.851680e+06	8.851380e+06	8.827240e+06	8.842540e+06	8.840680e+06	8.844920e+06	8.845980e+06	8.823660e+06	8.851860e+06	8.836960e+06	8.835560e+06	8.823940e+06	8.848180e+06	8.848260e+06	8.842940e+06	8.835440e+06	8.841420e+06	8.849260e+06	8.837680e+06	8.842160e+06	8.835020e+06	8.846280e+06	8.841100e+06	8.846120e+06	8.823880e+06	8.846560e+06	8.840320e+06	8.838160e+06	8.850480e+06	8.847220e+06	8.848200e+06	8.842900e+06	8.837900e+06	8.824580e+06	8.829540e+06	8.810980e+06	8.741180e+06	8.717620e+06	8.710200e+06	8.746040e+06	8.742540e+06	8.720400e+06	8.725560e+06	8.741080e+06	8.764780e+06	8.806840e+06	8.822840e+06	8.834820e+06	8.830260e+06	8.829260e+06	8.847480e+06	8.854680e+06	8.848220e+06	8.849340e+06	8.836600e+06	8.857760e+06	8.843960e+06	8.847820e+06	8.836940e+06	8.837540e+06	8.849640e+06	8.836080e+06	8.849040e+06	8.837540e+06	8.842040e+06	8.866760e+06	8.838600e+06	8.851160e+06	8.851720e+06	8.858940e+06	8.866000e+06	8.859580e+06	8.860560e+06	8.858100e+06	8.846280e+06	8.832500e+06	8.840880e+06	8.830700e+06	8.844640e+06	8.837700e+06	8.832320e+06	8.841660e+06	8.855100e+06	8.830860e+06	8.851980e+06	8.846320e+06	8.838840e+06	8.846340e+06	8.835220e+06	8.856780e+06	8.847960e+06	8.847340e+06	8.853400e+06	8.844400e+06	8.841320e+06	8.839740e+06	8.851600e+06	8.837400e+06	8.860500e+06	8.843380e+06	8.838780e+06
8.831700e+06	8.835400e+06	8.829840e+06	8.839540e+06	8.829500e+06	8.846140e+06	8.850580e+06	8.829900e+06	8.828040e+06	8.833240e+06	8.825020e+06	8.833580e+06	8.826860e+06	8.829580e+06	8.834900e+06	8.841180e+06	8.848380e+06	8.819260e+06	8.838320e+06	8.846260e+06	8.844980e+06	8.842540e+06	8.841060e+06	8.841300e+06	8.834120e+06	8.828860e+06	8.843720e+06	8.849920e+06	8.835680e+06	8.827880e+06	8.856100e+06	8.843300e+06	8.824540e+06	8.862480e+06	8.818260e+06	8.840900e+06	8.847080e+06	8.841120e+06	8.825220e+06	8.834900e+06	8.849120e+06	8.832220e+06	8.849000e+06	8.829980e+06	8.828200e+06	8.838820e+06	8.834040e+06	8.841600e+06	8.833760e+06	8.829680e+06	8.825980e+06	8.830880e+06	8.845820e+06	8.828420e+06	8.821460e+06	8.809260e+06	8.744320e+06	8.719440e+06	8.701440e+06	8.733700e+06	8.728100e+06	8.726220e+06	8.727160e+06	8.741220e+06	8.763760e+06	8.807260e+06	8.826260e+06	8.814820e+06	8.828300e+06	8.837020e+06	8.845720e+06	8.831680e+06	8.839080e+06	8.850360e+06	8.837200e+06	8.843840e+06	8.835900e+06	8.829940e+06	8.848420e+06	8.847420e+06	8.828720e+06	8.841220e+06	8.848620e+06	8.854180e+06	8.843140e+06	8.826580e+06	8.847860e+06	8.834920e+06	8.841540e+06	8.850120e+06	8.849480e+06	8.839040e+06	8.839260e+06	8.838480e+06	8.848980e+06	8.836980e+06	8.842860e+06	8.828380e+06	8.843420e+06	8.832660e+06	8.844000e+06	8.836000e+06	8.833600e+06	8.836600e+06	8.850620e+06	8.843780e+06	8.833920e+06	8.850080e+06	8.832020e+06	8.846920e+06	8.847500e+06	8.832640e+06	8.828760e+06	8.837400e+06	8.830380e+06	8.852740e+06	8.853340e+06	8.830160e+06	8.848320e+06	8.855500e+06	8.849120e+06
8.862960e+06	8.848780e+06	8.851020e+06	8.858660e+06	8.855180e+06	8.851080e+06	8.864300e+06	8.846100e+06	8.854800e+06	8.852260e+06	8.832460e+06	8.858540e+06	8.838300e+06	8.851640e+06	8.850840e+06	8.846980e+06	8.850620e+06	8.867180e+06	8.851520e+06	8.847900e+06	8.836680e+06	8.842860e+06	8.868920e+06	8.846860e+06	8.858760e+06	8.865100e+06	8.844760e+06	8.846880e+06	8.843440e+06	8.862200e+06	8.859480e+06	8.870880e+06	8.850560e+06	8.858800e+06	8.848820e+06	8.859500e+06	8.851400e+06	8.858320e+06	8.842560e+06	8.856160e+06	8.858240e+06	8.869760e+06	8.866780e+06	8.864160e+06	8.870600e+06	8.857740e+06	8.843340e+06	8.868220e+06	8.856400e+06	8.857080e+06	8.857000e+06	8.846040e+06	8.860320e+06	8.852220e+06	8.831540e+06	8.820480e+06	8.764100e+06	8.750220e+06	8.709320e+06	8.747920e+06	8.769420e+06	8.726540e+06	8.724940e+06	8.737720e+06	8.763500e+06	8.801560e+06	8.829280e+06	8.841980e+06	8.847960e+06	8.849400e+06	8.844680e+06	8.834540e+06	8.833840e+06	8.842140e+06	8.854160e+06	8.843820e+06	8.860340e+06	8.841680e+06	8.843500e+06	8.851880e+06	8.848000e+06	8.830680e+06	8.836420e+06	8.833040e+06	8.851720e+06	8.832420e+06	8.830640e+06	8.833020e+06	8.840580e+06	8.851080e+06	8.842740e+06	8.843860e+06	8.832960e+06	8.838980e+06	8.832580e+06	8.819960e+06	8.834980e+06	8.831360e+06	8.854720e+06	8.837660e+06	8.839320e+06	8.844740e+06	8.827900e+06	8.849200e+06	8.842460e+06	8.844000e+06	8.851820e+06	8.846800e+06	8.845060e+06	8.858980e+06	8.837480e+06	8.843040e+06	8.838820e+06	8.857160e+06	8.834400e+06	8.838860e+06	8.843160e+06	8.838980e+06	8.836080e+06	8.847120e+06	8.838480e+06
8.877660e+06	8.879720e+06	8.887860e+06	8.877940e+06	8.886760e+06	8.875820e+06	8.882220e+06	8.857580e+06	8.878200e+06	8.870280e+06	8.881480e+06	8.881400e+06	8.873800e+06	8.865000e+06	8.869620e+06	8.884540e+06	8.872640e+06	8.886180e+06	8.874000e+06	8.879460e+06	8.880580e+06	8.880500e+06	8.864640e+06	8.863960e+06	8.869860e+06	8.878420e+06	8.867280e+06	8.875100e+06	8.874420e+06	8.867740e+06	8.862280e+06	8.867500e+06	8.861300e+06	8.871420e+06	8.863540e+06	8.862560e+06	8.847040e+06	8.868520e+06	8.883100e+06	8.883800e+06	8.877140e+06	8.870900e+06	8.877780e+06	8.864860e+06	8.860220e+06	8.872780e+06	8.855420e+06	8.854840e+06	8.864500e+06	8.875920e+06	8.868040e+06	8.870120e+06	8.868020e+06	8.861180e+06	8.850760e+06	8.837180e+06	8.776840e+06	8.767980e+06	8.735400e+06	8.745420e+06	8.767400e+06	8.756340e+06	8.745660e+06	8.749660e+06	8.767600e+06	8.828740e+06	8.852180e+06	8.842140e+06	8.859580e+06	8.848060e+06	8.860220e+06	8.882640e+06	8.849940e+06	8.853140e+06	8.877560e+06	8.863740e+06	8.866960e+06	8.873200e+06	8.866960e+06	8.866440e+06	8.881280e+06	8.882940e+06	8.870660e+06	8.864620e+06	8.850800e+06	8.857720e+06	8.862480e+06	8.851560e+06	8.872540e+06	8.868240e+06	8.863820e+06	8.851360e+06	8.866660e+06	8.869460e+06	8.877940e+06	8.862540e+06	8.867840e+06	8.884400e+06	8.855180e+06	8.869960e+06	8.864020e+06	8.862480e+06	8.879280e+06	8.874420e+06	8.871960e+06	8.854000e+06	8.887860e+06	8.878320e+06	8.877220e+06	8.855480e+06	8.856000e+06	8.855500e+06	8.876640e+06	8.851860e+06	8.873740e+06	8.859300e+06	8.867460e+06	8.867360e+06	8.861160e+06	8.849960e+06	8.850740e+06
8.929060e+06	8.918840e+06	8.927060e+06	8.945620e+06	8.940840e+06	8.958160e+06	8.934920e+06	8.936940e+06	8.933180e+06	8.926060e+06	8.939600e+06	8.926460e+06	8.950500e+06	8.939080e+06	8.934080e+06	8.936360e+06	8.950120e+06	8.917660e+06	8.928920e+06	8.926800e+06	8.931360e+06	8.920760e+06	8.928480e+06	8.912880e+06	8.932120e+06	8.939660e+06	8.924320e+06	8.928820e+06	8.921180e+06	8.911780e+06	8.906680e+06	8.910340e+06	8.921620e+06	8.906340e+06	8.921940e+06	8.915680e+06	8.917500e+06	8.900520e+06	8.891620e+06	8.894420e+06	8.898260e+06	8.898960e+06	8.898320e+06	8.893500e+06	8.899160e+06	8.903280e+06	8.887300e+06	8.915100e+06	8.892700e+06	8.917120e+06	8.918300e+06	8.900600e+06	8.886400e+06	8.875060e+06	8.865860e+06	8.855700e+06	8.772800e+06	8.780060e+06	8.764760e+06	8.763160e+06	8.781840e+06	8.759860e+06	8.735080e+06	8.787620e+06	8.790120e+06	8.846620e+06	8.865960e+06	8.862600e+06	8.867600e+06	8.871360e+06	8.880640e+06	8.860080e+06	8.864720e+06	8.875160e+06	8.869700e+06	8.886780e+06	8.870160e+06	8.875960e+06	8.877180e+06	8.867280e+06	8.877220e+06	8.887040e+06	8.874760e+06	8.878560e+06	8.880140e+06	8.852600e+06	8.863460e+06	8.861800e+06	8.869920e+06	8.886160e+06	8.867020e+06	8.877720e+06	8.880840e+06	8.870980e+06	8.890400e+06	8.860520e+06	8.879740e+06	8.878320e+06	8.893360e+06	8.888860e+06	8.880820e+06	8.872020e+06	8.882300e+06	8.875700e+06	8.886020e+06	8.882200e+06	8.876060e+06	8.899880e+06	8.883320e+06	8.883080e+06	8.880340e+06	8.871180e+06	8.867940e+06	8.889920e+06	8.898440e+06	8.897220e+06	8.888680e+06	8.879700e+06	8.898360e+06	8.883380e+06	8.869280e+06
8.960880e+06	8.953440e+06	8.952920e+06	8.952240e+06	8.964340e+06	8.967940e+06	8.965520e+06	8.954940e+06	8.940740e+06	8.959920e+06	8.949640e+06	8.951560e+06	8.953780e+06	8.969700e+06	8.952060e+06	8.957500e+06	8.953560e+06	8.965900e+06	8.951780e+06	8.965660e+06	8.978520e+06	8.962880e+06	8.974460e+06	8.951300e+06	8.958280e+06	8.951880e+06	8.964220e+06	8.965040e+06	8.943920e+06	8.950900e+06	8.970480e+06	8.969680e+06	8.948520e+06	8.956360e+06	8.961780e+06	8.958120e+06	8.968800e+06	8.948580e+06	8.952920e+06	8.938340e+06	8.957620e+06	8.949300e+06	8.949540e+06	8.960860e+06	8.953460e+06	8.948980e+06	8.949800e+06	8.966000e+06	8.946900e+06	8.958120e+06	8.946780e+06	8.959780e+06	8.960020e+06	8.944560e+06	8.931320e+06	8.918340e+06	8.875440e+06	8.838300e+06	8.826000e+06	8.836340e+06	8.848040e+06	8.834780e+06	8.831940e+06	8.846620e+06	8.858720e+06	8.898540e+06	8.939880e+06	8.943460e+06	8.952320e+06	8.928780e+06	8.949740e+06	8.943720e+06	8.951180e+06	8.946060e+06	8.941460e+06	8.933440e+06	8.955440e+06	8.932280e+06	8.948960e+06	8.929820e+06	8.952680e+06	8.941080e+06	8.927740e+06	8.949220e+06	8.944300e+06	8.953080e+06	8.949640e+06	8.944000e+06	8.942540e+06	8.919400e+06	8.935120e+06	8.937820e+06	8.934200e+06	8.948500e+06	8.933600e+06	8.935980e+06	8.929080e+06	8.923160e+06	8.928520e+06	8.921940e+06	8.922420e+06	8.918200e+06	8.926420e+06	8.949440e+06	8.933480e+06	8.911940e+06	8.929520e+06	8.915100e+06	8.919660e+06	8.927080e+06	8.919780e+06	8.927820e+06	8.933940e+06	8.929360e+06	8.935500e+06	8.929800e+06	8.924520e+06	8.931900e+06	8.917540e+06	8.927640e+06	8.941700e+06
8.961800e+06	8.966780e+06	8.962620e+06	8.971080e+06	8.969420e+06	8.955320e+06	8.961660e+06	8.976800e+06	8.973200e+06	8.970480e+06	8.972240e+06	8.981360e+06	8.970360e+06	8.965480e+06	8.976740e+06	8.983460e+06	8.967640e+06	8.973160e+06	8.964620e+06	8.979080e+06	8.963260e+06	8.965020e+06	8.988540e+06	8.976240e+06	8.984120e+06	8.974400e+06	8.967760e+06	8.965220e+06	8.976780e+06	8.964960e+06	8.961620e+06	8.977120e+06	8.983660e+06	8.970540e+06	8.971120e+06	8.962780e+06	8.952860e+06	8.965620e+06	8.943520e+06	8.965740e+06	8.961640e+06	8.972800e+06	8.966920e+06	8.957280e+06	8.962620e+06	8.961720e+06	8.968440e+06	8.957260e+06	8.965560e+06	8.958220e+06	8.957540e+06	8.963220e+06	8.961140e+06	8.945900e+06	8.951060e+06	8.916580e+06	8.859280e+06	8.840740e+06	8.835780e+06	8.841900e+06	8.856160e+06	8.843860e+06	8.850780e+06	8.850000e+06	8.878740e+06	8.916500e+06	8.948720e+06	8.961460e+06	8.964880e+06	8.951000e+06	8.971640e+06	8.962840e+06	8.952100e+06	8.954800e+06	8.960140e+06	8.967300e+06	8.959180e+06	8.961460e+06	8.954080e+06	8.972840e+06	8.964960e+06	8.970200e+06	8.955500e+06	8.960040e+06	8.951980e+06	8.954440e+06	8.965460e+06	8.974160e+06	8.954700e+06	8.947560e+06	8.959700e+06	8.968900e+06	8.970440e+06	8.955300e+06	8.953460e+06	8.960620e+06	8.955360e+06	8.951500e+06	8.945700e+06	8.936760e+06	8.967160e+06	8.949060e+06	8.963300e+06	8.960080e+06	8.963900e+06	8.952260e+06	8.946220e+06	8.958700e+06	8.956260e+06	8.964180e+06	8.956700e+06	8.961580e+06	8.947540e+06	8.943920e+06	8.960140e+06	8.953060e+06	8.965000e+06	8.951620e+06	8.967960e+06	8.944340e+06	8.936300e+06
